Fri Jan 13 17:27:19 2023

Number of Points = 3000
Depth (nm)	Load (µN)	Time (s)	Depth (V)	Load (V)
0.000000	2.060116	0.000000	0.033656	0.960482
2.662024	4.262167	0.005005	0.033156	0.965348
7.668158	8.020797	0.010010	0.032216	0.973855
12.995312	13.479487	0.015014	0.031215	0.985002
15.588897	20.027537	0.020019	0.030727	0.996136
16.732060	26.492025	0.025024	0.030511	1.006240
17.675575	32.712637	0.030029	0.030332	1.015784
18.493044	38.813423	0.035034	0.030177	1.025000
19.154452	44.952318	0.040038	0.030052	1.034106
19.656855	51.017585	0.045043	0.029956	1.042946
20.372962	57.057905	0.050048	0.029820	1.051786
20.747145	63.163247	0.055053	0.029748	1.060468
21.378403	69.179438	0.060058	0.029628	1.069087
21.603253	75.278423	0.065062	0.029585	1.077546
22.124239	81.297983	0.070067	0.029485	1.085978
22.473254	87.366715	0.075072	0.029418	1.094327
22.949703	93.379088	0.080077	0.029327	1.102599
23.285137	99.444589	0.085082	0.029263	1.110811
23.848698	105.451522	0.090086	0.029156	1.118996
24.094119	111.535381	0.095091	0.029108	1.127070
24.600352	117.564302	0.100096	0.029012	1.135138
24.792754	123.636284	0.105101	0.028974	1.143057
25.209304	129.630317	0.110106	0.028895	1.150927
25.578609	135.688498	0.115110	0.028824	1.158802
25.970309	141.709638	0.120115	0.028749	1.166588
26.279540	147.764039	0.125120	0.028689	1.174326
26.748783	153.789928	0.130125	0.028600	1.182050
26.938300	159.842221	0.135130	0.028563	1.189631
27.359577	165.849159	0.140134	0.028482	1.197211
27.488356	171.946208	0.145139	0.028456	1.204723
27.982525	177.917701	0.150144	0.028362	1.212199
28.078302	184.013787	0.155149	0.028343	1.219602
28.615371	189.981754	0.160154	0.028240	1.227001
28.914102	196.023873	0.165158	0.028183	1.234340
29.277748	202.066393	0.170163	0.028113	1.241664
29.508201	208.106022	0.175168	0.028068	1.248885
30.019875	214.109802	0.180173	0.027971	1.256141
30.223378	220.162221	0.185178	0.027931	1.263282
30.622538	226.193302	0.190182	0.027855	1.270441
30.928058	232.203756	0.195187	0.027796	1.277496
31.415972	238.215716	0.200192	0.027703	1.284590
31.564629	244.301107	0.205197	0.027674	1.291588
31.906747	250.316015	0.210202	0.027608	1.298548
31.854135	256.459527	0.215206	0.027616	1.305454
32.216107	262.361488	0.220211	0.027547	1.312222
32.241916	268.435669	0.225216	0.027541	1.319011
32.583733	274.422362	0.230221	0.027475	1.325795
32.827065	280.444119	0.235226	0.027428	1.332544
33.256162	286.435535	0.240230	0.027346	1.339299
33.442819	292.516939	0.245235	0.027309	1.346023
33.732175	298.502853	0.250240	0.027253	1.352650
34.075539	304.538512	0.255245	0.027188	1.359319
34.253425	310.588724	0.260250	0.027153	1.365907
34.434103	316.610924	0.265254	0.027117	1.372434
34.807586	322.606634	0.270259	0.027046	1.378977
35.134110	328.627548	0.275264	0.026983	1.385497
35.428115	334.676116	0.280269	0.026926	1.392003
35.600336	340.704259	0.285274	0.026892	1.398412
35.898645	346.722040	0.290278	0.026835	1.404827
36.102840	352.742078	0.295283	0.026795	1.411181
36.384896	358.763228	0.300288	0.026741	1.417536
36.585548	364.789125	0.305293	0.026702	1.423837
36.872772	370.814407	0.310298	0.026646	1.430142
37.103161	376.823355	0.315302	0.026602	1.436381
37.516011	382.833489	0.320307	0.026523	1.442662
37.741902	388.872650	0.325312	0.026479	1.448876
38.126983	394.885981	0.330317	0.026405	1.455096
38.272194	400.932560	0.335322	0.026376	1.461235
38.487610	406.950430	0.340326	0.026334	1.467346
38.726319	412.949394	0.345331	0.026288	1.473420
39.137477	418.970592	0.350336	0.026209	1.479553
39.285391	424.998690	0.355341	0.026180	1.485574
39.731846	430.996038	0.360346	0.026095	1.491646
39.867876	437.056173	0.365350	0.026068	1.497645
40.059105	443.081414	0.370355	0.026030	1.503606
40.290632	449.085488	0.375360	0.025986	1.509537
40.550593	455.084390	0.380365	0.025935	1.515449
40.874746	461.119948	0.385370	0.025873	1.521395
41.148744	467.159985	0.390374	0.025820	1.527306
41.389794	473.137384	0.395379	0.025773	1.533122
41.675099	479.188855	0.400384	0.025718	1.539002
41.856925	485.207830	0.405389	0.025683	1.544794
42.014676	491.248100	0.410394	0.025652	1.550575
42.087401	497.250216	0.415398	0.025636	1.556271
42.228764	503.287819	0.420403	0.025608	1.562002
42.436251	509.276222	0.425408	0.025568	1.567689
42.747379	515.301443	0.430413	0.025508	1.573423
43.017343	521.305579	0.435418	0.025456	1.579103
43.095855	527.364653	0.440422	0.025440	1.584751
43.371325	533.342816	0.445427	0.025387	1.590368
43.560075	539.395021	0.450432	0.025350	1.596006
43.711053	545.386318	0.455437	0.025320	1.601555
44.037363	551.411798	0.460442	0.025257	1.607174
44.239089	557.422251	0.465446	0.025218	1.612718
44.615006	563.445135	0.470451	0.025146	1.618311
44.617726	569.501894	0.475456	0.025144	1.623796
45.001263	575.462920	0.480461	0.025070	1.629297
45.246484	581.452081	0.485466	0.025023	1.634762
45.709238	587.509721	0.490470	0.024935	1.640338
45.782401	593.534884	0.495475	0.024919	1.645743
46.109562	599.546104	0.500480	0.024856	1.651198
46.212005	605.575074	0.505485	0.024836	1.656580
46.495952	611.581605	0.510490	0.024781	1.661981
46.565244	617.604500	0.515494	0.024766	1.667313
46.976590	623.591535	0.520499	0.024688	1.672702
47.032628	629.660669	0.525504	0.024676	1.678035
47.405352	635.620196	0.530509	0.024604	1.683354
47.387535	641.696587	0.535514	0.024606	1.688638
47.876090	647.626945	0.540518	0.024513	1.693933
48.242006	653.692911	0.545523	0.024443	1.699292
48.489876	659.703829	0.550528	0.024395	1.704550
48.512372	665.746814	0.555533	0.024389	1.709752
48.921712	671.697889	0.560538	0.024311	1.714975
49.058833	677.778301	0.565542	0.024284	1.720212
49.400911	683.754012	0.570547	0.024218	1.725404
49.621696	689.791485	0.575552	0.024175	1.730597
49.791671	695.798457	0.580557	0.024142	1.735734
50.083781	701.824191	0.585562	0.024085	1.740908
50.240037	707.825219	0.590566	0.024055	1.746005
50.415154	713.845943	0.595571	0.024020	1.751109
50.801521	719.849662	0.600576	0.023946	1.756246
50.874275	725.888719	0.605581	0.023931	1.761306
51.096085	731.907570	0.610586	0.023888	1.766378
50.992992	737.947622	0.615590	0.023906	1.771359
51.320655	743.913538	0.620595	0.023843	1.776389
51.500584	749.941971	0.625600	0.023808	1.781414
51.704727	755.952958	0.630605	0.023768	1.786417
51.926857	761.955523	0.635610	0.023725	1.791404
52.095654	767.997801	0.640614	0.023692	1.796395
52.222141	773.980508	0.645619	0.023666	1.801311
52.504186	780.029461	0.650624	0.023612	1.806312
52.633214	786.026889	0.655629	0.023586	1.811214
53.033731	792.015406	0.660634	0.023510	1.816172
53.123879	798.062974	0.665638	0.023491	1.821076
53.255747	804.085398	0.670643	0.023465	1.825959
53.383081	810.096288	0.675648	0.023440	1.830819
53.537215	816.099513	0.680653	0.023409	1.835667
53.661209	822.119331	0.685658	0.023384	1.840506
53.788521	828.126907	0.690662	0.023359	1.845325
53.951451	834.132624	0.695667	0.023327	1.850139
54.186373	840.164447	0.700672	0.023281	1.854981
54.348460	846.169417	0.705677	0.023249	1.859769
54.689784	852.155082	0.710682	0.023184	1.864579
54.800397	858.199268	0.715686	0.023162	1.869359
55.028974	864.202510	0.720691	0.023117	1.874127
55.078041	870.244111	0.725696	0.023107	1.878865
55.271139	876.242389	0.730701	0.023069	1.883595
55.555208	882.225007	0.735706	0.023014	1.888326
55.813070	888.268522	0.740710	0.022964	1.893085
55.853651	894.289032	0.745715	0.022955	1.897756
56.093741	900.275512	0.750720	0.022909	1.902443
55.988638	906.321773	0.755725	0.022927	1.907072
56.411253	912.280191	0.760730	0.022846	1.911763
56.510442	918.342253	0.765734	0.022826	1.916436
56.672812	924.340141	0.770739	0.022794	1.921065
56.707287	930.377456	0.775744	0.022786	1.925679
56.965214	936.361911	0.780749	0.022736	1.930301
57.008901	942.373275	0.785754	0.022726	1.934876
57.246900	948.407340	0.790758	0.022680	1.939508
57.382684	954.387554	0.795763	0.022653	1.944062
57.552922	960.421479	0.800768	0.022620	1.948654
57.689052	966.435464	0.805773	0.022593	1.953212
57.900703	972.429704	0.810778	0.022552	1.957764
57.988609	978.462610	0.815782	0.022534	1.962302
58.267942	984.449308	0.820787	0.022480	1.966845
58.328235	990.475014	0.825792	0.022467	1.971350
58.511780	996.511270	0.830797	0.022431	1.975884
58.540478	1002.504228	0.835802	0.022424	1.980336
58.813821	1008.518264	0.840806	0.022371	1.984855
58.804289	1014.541274	0.845811	0.022372	1.989300
59.022460	1020.539637	0.850816	0.022329	1.993774
59.240370	1026.539899	0.855821	0.022287	1.998239
59.482983	1032.554510	0.860826	0.022240	2.002710
59.753959	1038.570114	0.865830	0.022188	2.007180
59.945887	1044.567660	0.870835	0.022150	2.011607
60.027777	1050.618477	0.875840	0.022133	2.016035
60.304388	1056.598800	0.880845	0.022080	2.020451
60.449442	1062.627200	0.885850	0.022051	2.024859
60.607380	1068.643109	0.890854	0.022020	2.029252
60.630226	1074.647884	0.895859	0.022014	2.033594
61.099358	1080.640034	0.900864	0.021925	2.038027
61.163795	1086.677525	0.905869	0.021911	2.042384
61.448037	1092.667500	0.910874	0.021856	2.046751
61.807139	1098.666187	0.915878	0.021787	2.051134
62.002768	1104.716147	0.920883	0.021749	2.055504
61.928627	1110.733762	0.925888	0.021762	2.059776
62.208730	1116.727820	0.930893	0.021708	2.064108
62.240364	1122.741288	0.935898	0.021700	2.068385
62.530005	1128.747079	0.940902	0.021644	2.072710
62.664407	1134.779883	0.945907	0.021618	2.077007
62.881100	1140.766314	0.950912	0.021575	2.081283
62.926378	1146.792950	0.955917	0.021565	2.085537
63.099957	1152.807006	0.960922	0.021531	2.089804
63.102946	1158.846705	0.965926	0.021529	2.094040
63.227391	1164.830370	0.970931	0.021505	2.098257
63.265618	1170.842492	0.975936	0.021496	2.102464
63.553089	1176.837727	0.980941	0.021440	2.106711
63.668229	1182.829440	0.985946	0.021417	2.110906
63.973040	1188.874459	0.990950	0.021359	2.115174
64.045468	1194.875183	0.995955	0.021344	2.119348
64.145393	1200.901324	1.000960	0.021323	2.123538
64.403203	1206.895533	1.005965	0.021273	2.127735
64.589649	1212.920307	1.010970	0.021237	2.131928
64.682221	1218.923859	1.015974	0.021218	2.136076
65.431298	1224.832280	1.020979	0.021076	2.140302
65.798697	1230.936632	1.025984	0.021006	2.144567
65.955527	1236.955615	1.030989	0.020975	2.148715
66.131714	1242.963585	1.035994	0.020940	2.152853
66.401975	1248.988048	1.040998	0.020888	2.157016
66.241086	1255.011566	1.046003	0.020917	2.161071
66.543977	1260.994769	1.051008	0.020858	2.165197
66.581703	1267.011830	1.056013	0.020850	2.169278
66.707970	1273.043058	1.061018	0.020825	2.173381
66.945232	1279.025039	1.066022	0.020779	2.177468
67.180000	1285.045330	1.071027	0.020733	2.181572
67.153813	1291.061655	1.076032	0.020737	2.185607
67.514191	1297.049334	1.081037	0.020667	2.189703
67.469249	1303.083405	1.086042	0.020674	2.193731
67.760053	1309.084320	1.091046	0.020618	2.197804
67.705181	1315.117521	1.096051	0.020627	2.201815
68.022377	1321.105640	1.101056	0.020566	2.205871
68.052110	1327.121972	1.106061	0.020559	2.209874
68.416874	1333.125315	1.111066	0.020489	2.213935
68.316852	1339.142996	1.116070	0.020506	2.217896
68.513874	1345.171914	1.121075	0.020468	2.221923
68.623872	1351.159343	1.126080	0.020446	2.225896
68.950470	1357.144210	1.131085	0.020383	2.229908
69.097948	1363.197197	1.136090	0.020354	2.233918
69.274074	1369.191835	1.141094	0.020319	2.237888
69.342884	1375.215235	1.146099	0.020305	2.241847
69.546603	1381.221991	1.151104	0.020265	2.245818
69.656355	1387.219200	1.156109	0.020243	2.249755
69.823389	1393.247967	1.161114	0.020210	2.253718
70.127891	1399.231573	1.166118	0.020152	2.257674
70.089945	1405.283501	1.171123	0.020157	2.261594
69.999223	1411.277148	1.176128	0.020173	2.265457
70.234374	1417.283084	1.181133	0.020127	2.269393
70.522830	1423.271030	1.186138	0.020072	2.273321
70.668515	1429.303506	1.191142	0.020043	2.277241
70.658934	1435.314601	1.196147	0.020043	2.281106
70.875978	1441.330139	1.201152	0.020001	2.285017
70.843693	1447.327646	1.206157	0.020005	2.288856
71.227830	1453.316534	1.211162	0.019932	2.292772
71.327907	1459.366255	1.216166	0.019912	2.296659
71.400433	1465.365908	1.221171	0.019897	2.300502
71.448662	1471.377827	1.226176	0.019886	2.304342
71.684659	1477.373225	1.231181	0.019840	2.308204
71.701416	1483.382325	1.236186	0.019836	2.312022
72.097994	1489.400134	1.241190	0.019760	2.315919
72.102463	1495.421857	1.246195	0.019757	2.319730
72.212459	1501.421310	1.251200	0.019735	2.323542
72.130732	1507.444291	1.256205	0.019749	2.327324
72.445714	1513.445683	1.261210	0.019688	2.331168
72.531818	1519.459762	1.266214	0.019671	2.334966
72.598256	1525.473518	1.271219	0.019657	2.338753
72.819161	1531.449363	1.276224	0.019614	2.342543
72.980153	1537.485800	1.281229	0.019582	2.346352
73.060528	1543.497714	1.286234	0.019566	2.350123
73.183482	1549.507582	1.291238	0.019541	2.353895
73.279825	1555.505590	1.296243	0.019522	2.357649
73.594629	1561.512981	1.301248	0.019461	2.361447
73.599416	1567.549709	1.306253	0.019459	2.365193
73.746958	1573.534704	1.311258	0.019429	2.368931
73.807419	1579.551832	1.316262	0.019417	2.372665
74.124198	1585.550455	1.321267	0.019356	2.376434
74.368652	1591.539033	1.326272	0.019308	2.380176
74.620216	1597.587692	1.331277	0.019260	2.383950
74.704441	1603.577760	1.336282	0.019242	2.387649
74.837780	1609.603598	1.341286	0.019216	2.391373
75.014861	1615.617979	1.346291	0.019181	2.395094
75.115286	1621.595465	1.351296	0.019161	2.398771
75.177925	1627.646238	1.356301	0.019148	2.402479
75.338718	1633.661232	1.361306	0.019116	2.406180
75.407963	1639.645778	1.366310	0.019101	2.409838
75.519571	1645.669563	1.371315	0.019079	2.413523
75.628854	1651.661975	1.376320	0.019057	2.417182
75.745825	1657.694808	1.381325	0.019034	2.420862
75.743626	1663.691930	1.386330	0.019032	2.424492
75.941681	1669.681041	1.391334	0.018994	2.428150
75.993189	1675.705647	1.396339	0.018983	2.431796
76.216764	1681.731219	1.401344	0.018939	2.435470
76.433985	1687.696475	1.406349	0.018897	2.439102
76.726212	1693.728290	1.411354	0.018841	2.442782
76.882180	1699.740340	1.416358	0.018810	2.446419
77.073287	1705.774027	1.421363	0.018773	2.450070
77.178853	1711.741497	1.426368	0.018751	2.453659
77.436966	1717.762131	1.431373	0.018701	2.457304
77.389406	1723.790333	1.436378	0.018709	2.460889
77.633152	1729.804079	1.441382	0.018662	2.464517
77.510490	1735.819654	1.446387	0.018683	2.468069
77.630442	1741.809055	1.451392	0.018659	2.471648
77.843145	1747.824861	1.456397	0.018618	2.475255
77.973416	1753.825650	1.461402	0.018592	2.478832
78.095508	1759.829666	1.466406	0.018567	2.482404
78.161943	1765.869441	1.471411	0.018553	2.485982
78.136890	1771.873356	1.476416	0.018557	2.489516
78.076263	1777.894367	1.481421	0.018567	2.493048
78.284979	1783.847974	1.486426	0.018526	2.496586
78.578912	1789.891793	1.491430	0.018469	2.500189
78.616843	1795.900608	1.496435	0.018461	2.503718
78.640710	1801.914727	1.501440	0.018455	2.507242
78.673916	1807.914532	1.506445	0.018447	2.510754
78.801235	1813.936052	1.511450	0.018422	2.514292
78.888345	1819.922013	1.516454	0.018404	2.517796
79.200876	1825.928595	1.521459	0.018344	2.521350
79.111085	1831.985253	1.526464	0.018359	2.524853
79.398660	1837.951159	1.531469	0.018304	2.528369
79.491240	1843.958386	1.536474	0.018285	2.531867
79.641648	1849.987524	1.541478	0.018255	2.535384
79.774731	1855.975842	1.546483	0.018228	2.538869
79.930726	1861.997072	1.551488	0.018198	2.542373
80.080407	1867.995956	1.556493	0.018168	2.545858
80.260712	1874.025105	1.561498	0.018133	2.549361
80.230053	1880.031401	1.566502	0.018137	2.552807
80.380419	1886.033218	1.571507	0.018107	2.556279
80.555673	1892.048691	1.576512	0.018073	2.559759
80.763738	1898.042599	1.581517	0.018032	2.563228
80.745268	1904.061536	1.586522	0.018034	2.566665
80.920523	1910.090316	1.591526	0.018000	2.570139
81.005488	1916.081171	1.596531	0.017983	2.573569
81.040777	1922.171963	1.601536	0.017975	2.577043
81.058490	1928.096926	1.606541	0.017970	2.580415
81.253168	1934.108508	1.611546	0.017932	2.583863
81.353566	1940.091960	1.616550	0.017911	2.587274
81.527421	1946.137742	1.621555	0.017877	2.590729
81.537950	1952.142972	1.626560	0.017874	2.594127
81.754155	1958.138951	1.631565	0.017832	2.597553
81.786894	1964.162659	1.636570	0.017824	2.600956
82.002412	1970.167438	1.641574	0.017782	2.604377
81.915977	1976.173043	1.646579	0.017797	2.607740
82.028987	1982.192701	1.651584	0.017774	2.611142
82.098220	1988.191892	1.656589	0.017760	2.614521
82.249356	1994.181516	1.661594	0.017730	2.617904
82.338744	2000.203907	1.666598	0.017712	2.621290
82.454555	2006.233870	1.671603	0.017688	2.624681
82.475286	2012.201135	1.676608	0.017683	2.628016
82.836921	2018.221458	1.681613	0.017614	2.631436
83.000576	2024.249769	1.686618	0.017582	2.634821
82.984180	2030.253646	1.691622	0.017583	2.638157
83.099385	2036.255233	1.696627	0.017560	2.641510
83.184150	2042.284299	1.701632	0.017543	2.644869
83.332857	2048.262519	1.706637	0.017513	2.648206
83.537069	2054.289853	1.711642	0.017473	2.651576
83.697879	2060.287262	1.716646	0.017442	2.654918
83.920025	2066.297884	1.721651	0.017399	2.658274
84.324781	2072.255795	1.726656	0.017321	2.661628
84.806097	2078.303497	1.731661	0.017229	2.665040
84.945551	2084.329554	1.736666	0.017202	2.668377
85.260921	2090.331718	1.741670	0.017141	2.671727
85.442431	2096.334234	1.746675	0.017105	2.675050
85.604499	2102.363584	1.751680	0.017074	2.678379
86.381502	2108.248194	1.756685	0.016926	2.681732
87.232686	2114.351303	1.761690	0.016765	2.685212
87.484108	2120.374882	1.766694	0.016716	2.688541
87.666963	2126.387512	1.771699	0.016681	2.691849
87.722748	2132.401642	1.776704	0.016669	2.695131
87.784593	2138.423539	1.781709	0.016656	2.698415
87.879931	2144.419293	1.786714	0.016636	2.701686
87.938599	2150.425233	1.791718	0.016624	2.704953
88.016795	2156.438124	1.796723	0.016608	2.708222
88.257098	2162.445681	1.801728	0.016561	2.711513
88.399943	2168.448422	1.806733	0.016533	2.714780
88.367227	2174.471739	1.811738	0.016537	2.718025
88.436637	2180.478988	1.816742	0.016523	2.721274
88.509473	2186.476147	1.821747	0.016508	2.724515
88.550685	2192.500832	1.826752	0.016498	2.727761
88.758252	2198.497649	1.831757	0.016458	2.731016
88.788377	2204.526857	1.836762	0.016451	2.734255
88.773016	2210.509787	1.841766	0.016452	2.737458
89.061672	2216.513509	1.846771	0.016397	2.740719
88.827329	2222.580595	1.851776	0.016439	2.743923
89.032067	2228.499723	1.856781	0.016399	2.747117
89.203234	2234.558764	1.861786	0.016366	2.750376
89.333431	2240.566889	1.866790	0.016340	2.753598
89.328003	2246.562659	1.871795	0.016339	2.756787
89.336981	2252.575585	1.876800	0.016336	2.759983
89.498015	2258.605343	1.881805	0.016304	2.763210
89.661598	2264.574881	1.886810	0.016272	2.766402
89.785191	2270.613389	1.891814	0.016247	2.769620
89.738376	2276.628583	1.896819	0.016255	2.772794
89.902106	2282.590094	1.901824	0.016223	2.775970
89.961053	2288.625937	1.906829	0.016210	2.779165
90.128258	2294.628125	1.911834	0.016177	2.782356
91.786425	2300.489105	1.916838	0.015865	2.785711
91.963397	2306.684666	1.921843	0.015830	2.788998
92.056279	2312.640654	1.926848	0.015811	2.792141
92.140983	2318.686922	1.931853	0.015794	2.795327
92.247162	2324.652437	1.936858	0.015772	2.798470
92.691504	2330.675497	1.941862	0.015687	2.801695
92.565435	2336.710926	1.946867	0.015709	2.804830
92.800216	2342.721287	1.951872	0.015664	2.808006
92.707096	2348.710341	1.956877	0.015680	2.811115
93.137939	2354.708195	1.961882	0.015598	2.814310
93.012598	2360.734375	1.966886	0.015620	2.817426
93.324144	2366.728816	1.971891	0.015560	2.820593
93.218200	2372.776820	1.976896	0.015578	2.823717
93.216753	2378.746332	1.981901	0.015577	2.826813
93.219316	2384.774204	1.986906	0.015575	2.829937
93.632960	2390.758520	1.991910	0.015496	2.833100
93.800851	2396.773281	1.996915	0.015463	2.836236
93.694182	2402.804653	2.001920	0.015481	2.839334
93.675872	2408.816052	2.006925	0.015483	2.842433
93.773136	2414.814939	2.011930	0.015463	2.845539
93.770428	2420.803739	2.016934	0.015463	2.848622
93.953117	2426.833380	2.021939	0.015427	2.851751
94.033227	2432.814797	2.026944	0.015410	2.854836
94.246921	2438.827628	2.031949	0.015369	2.857954
94.365834	2444.856028	2.036954	0.015345	2.861063
94.397766	2450.865776	2.041958	0.015337	2.864144
94.331551	2456.880840	2.046963	0.015348	2.867210
94.460004	2462.855719	2.051968	0.015323	2.870282
94.714615	2468.875720	2.056973	0.015273	2.873394
94.815386	2474.881303	2.061978	0.015253	2.876471
94.855486	2480.897148	2.066982	0.015244	2.879541
95.291709	2486.881681	2.071987	0.015161	2.882652
95.448582	2492.897148	2.076992	0.015130	2.885733
95.420609	2498.946464	2.081997	0.015134	2.888799
95.666405	2504.923242	2.087002	0.015086	2.891868
95.543605	2510.969843	2.092006	0.015107	2.894911
95.495834	2516.960424	2.097011	0.015115	2.897935
95.644950	2522.929582	2.102016	0.015085	2.900975
96.086294	2528.919107	2.107021	0.015001	2.904067
96.545778	2534.957488	2.112026	0.014913	2.907182
96.461889	2541.008654	2.117030	0.014928	2.910218
96.720247	2546.972312	2.122035	0.014878	2.913259
96.733842	2552.992881	2.127040	0.014874	2.916288
96.943208	2558.985959	2.132045	0.014833	2.919330
96.914820	2565.034935	2.137050	0.014837	2.922360
97.016079	2571.025417	2.142054	0.014816	2.925378
97.365725	2576.999489	2.147059	0.014749	2.928422
97.362791	2583.055893	2.152064	0.014748	2.931451
97.428783	2589.027730	2.157069	0.014734	2.934444
97.462156	2595.083136	2.162074	0.014727	2.937472
97.539993	2601.033046	2.167078	0.014711	2.940450
97.887499	2607.067666	2.172083	0.014644	2.943508
97.804978	2613.102105	2.177088	0.014658	2.946498
98.052479	2619.062734	2.182093	0.014610	2.949498
98.109853	2625.128318	2.187098	0.014598	2.952519
98.048845	2631.097858	2.192102	0.014608	2.955471
98.256616	2637.097787	2.197107	0.014567	2.958475
98.176871	2643.155631	2.202112	0.014581	2.961462
98.453883	2649.108615	2.207117	0.014527	2.964448
98.518860	2655.140896	2.212122	0.014513	2.967438
98.613101	2661.150271	2.217126	0.014494	2.970418
98.591522	2667.165622	2.222131	0.014497	2.973380
98.689451	2673.153683	2.227136	0.014477	2.976344
98.738068	2679.172064	2.232141	0.014466	2.979313
99.081660	2685.162819	2.237146	0.014400	2.982309
99.060768	2691.195082	2.242150	0.014403	2.985268
99.162764	2697.179379	2.247155	0.014382	2.988219
99.287277	2703.219643	2.252160	0.014357	2.991198
99.608006	2709.155080	2.257165	0.014296	2.994151
99.926358	2715.237771	2.262170	0.014235	2.997172
99.922412	2721.213946	2.267174	0.014234	3.000092
100.091156	2727.237213	2.272179	0.014201	3.003057
99.987826	2733.254768	2.277184	0.014219	3.005977
100.099489	2739.266628	2.282189	0.014196	3.008922
100.216754	2745.253259	2.287194	0.014173	3.011853
100.240896	2751.265798	2.292198	0.014167	3.014780
100.288082	2757.270268	2.297203	0.014156	3.017704
100.648675	2763.272372	2.302208	0.014087	3.020669
100.527673	2769.290334	2.307213	0.014108	3.023569
100.690649	2775.320590	2.312218	0.014076	3.026514
100.801080	2781.285920	2.317222	0.014054	3.029416
101.118337	2787.331363	2.322227	0.013993	3.032384
101.076882	2793.308191	2.327232	0.013999	3.035265
101.314444	2799.309623	2.332237	0.013953	3.038195
101.326863	2805.364882	2.337242	0.013949	3.041115
101.576370	2811.336978	2.342246	0.013901	3.044027
101.799290	2817.361761	2.347251	0.013858	3.046957
101.816153	2823.349432	2.352256	0.013853	3.049838
102.094241	2829.383306	2.357261	0.013799	3.052774
102.060541	2835.383732	2.362266	0.013804	3.055648
102.036659	2841.386889	2.367270	0.013807	3.058522
101.976277	2847.424059	2.372275	0.013817	3.061404
102.152840	2853.372847	2.377280	0.013783	3.064275
102.321268	2859.419252	2.382285	0.013749	3.067188
102.349452	2865.427124	2.387290	0.013743	3.070061
102.230637	2871.432848	2.392294	0.013763	3.072909
102.438450	2877.430535	2.397299	0.013723	3.075797
102.529805	2883.445272	2.402304	0.013704	3.078673
102.815634	2889.443980	2.407309	0.013649	3.081567
102.931920	2895.478589	2.412314	0.013626	3.084451
103.101475	2901.468407	2.417318	0.013593	3.087318
103.213180	2907.467702	2.422323	0.013570	3.090180
103.349074	2913.467505	2.427328	0.013543	3.093042
103.421158	2919.512762	2.432333	0.013528	3.095914
103.368150	2925.502602	2.437338	0.013537	3.098740
103.455183	2931.517011	2.442342	0.013519	3.101595
103.716550	2937.495249	2.447347	0.013468	3.104454
103.790657	2943.533265	2.452352	0.013453	3.107312
103.807188	2949.536060	2.457357	0.013448	3.110143
103.931115	2955.538160	2.462362	0.013424	3.112987
104.128405	2961.531033	2.467366	0.013385	3.115833
104.210926	2967.566324	2.472371	0.013368	3.118681
104.295092	2973.566789	2.477376	0.013351	3.121510
104.505460	2979.563246	2.482381	0.013310	3.124352
104.533225	2985.588511	2.487386	0.013303	3.127180
104.608453	2991.594750	2.492390	0.013288	3.130003
104.786010	2997.578671	2.497395	0.013253	3.132827
104.709671	3003.621246	2.502400	0.013266	3.135641
104.936916	3009.584943	2.507405	0.013221	3.138457
104.954309	3015.643897	2.512410	0.013217	3.141286
105.032662	3021.602179	2.517414	0.013201	3.144075
105.264094	3027.643404	2.522419	0.013156	3.146920
105.276688	3033.655057	2.527424	0.013152	3.149719
105.424232	3039.638306	2.532429	0.013123	3.152521
105.578336	3045.658680	2.537434	0.013092	3.155338
105.654906	3051.657854	2.542438	0.013076	3.158132
105.926879	3057.671154	2.547443	0.013024	3.160957
106.041823	3063.668680	2.552448	0.013001	3.163751
106.282303	3069.675083	2.557453	0.012954	3.166563
106.453426	3075.698229	2.562458	0.012921	3.169372
106.503370	3081.700979	2.567462	0.012910	3.172152
106.560070	3087.725341	2.572467	0.012898	3.174940
106.455266	3093.717662	2.577472	0.012916	3.177690
106.585504	3099.759163	2.582477	0.012890	3.180492
106.673383	3105.713125	2.587482	0.012872	3.183244
106.883128	3111.753968	2.592486	0.012831	3.186051
107.097333	3117.739170	2.597491	0.012789	3.188830
107.145367	3123.761208	2.602496	0.012779	3.191602
107.077096	3129.772943	2.607501	0.012790	3.194351
107.234390	3135.754961	2.612506	0.012759	3.197114
107.347853	3141.796432	2.617510	0.012736	3.199896
107.464239	3147.785053	2.622515	0.012713	3.202652
107.622431	3153.810620	2.627520	0.012682	3.205428
107.946483	3159.784359	2.632525	0.012620	3.208199
108.199542	3165.822803	2.637530	0.012571	3.210988
108.302784	3171.808195	2.642534	0.012550	3.213731
108.322213	3177.816585	2.647539	0.012545	3.216472
108.337760	3183.850431	2.652544	0.012540	3.219221
108.399535	3189.837082	2.657549	0.012527	3.221952
108.552858	3195.863842	2.662554	0.012497	3.224711
108.573360	3201.861573	2.667558	0.012492	3.227437
108.890944	3207.860794	2.672563	0.012430	3.230200
109.041504	3213.863384	2.677568	0.012401	3.232940
108.948447	3219.912360	2.682573	0.012417	3.235668
109.138363	3225.869163	2.687578	0.012380	3.238388
109.166298	3231.927652	2.692582	0.012373	3.241131
109.361917	3237.866804	2.697587	0.012335	3.243839
109.550974	3243.918068	2.702592	0.012298	3.246595
109.554263	3249.937387	2.707597	0.012296	3.249310
109.794271	3255.912474	2.712602	0.012249	3.252034
109.811095	3261.949173	2.717606	0.012244	3.254754
109.799505	3267.935821	2.722611	0.012245	3.257446
109.943969	3273.953307	2.727616	0.012216	3.260169
109.972271	3279.965039	2.732621	0.012210	3.262873
110.130261	3285.981202	2.737626	0.012179	3.265593
110.065053	3291.996742	2.742630	0.012189	3.268282
110.198036	3297.991756	2.747635	0.012163	3.270984
110.274977	3303.990218	2.752640	0.012147	3.273679
110.418699	3309.978967	2.757645	0.012118	3.276376
110.558985	3316.019826	2.762650	0.012091	3.279093
110.625974	3322.009540	2.767654	0.012077	3.281776
110.790038	3328.028585	2.772659	0.012044	3.284483
110.989203	3334.028767	2.777664	0.012005	3.287183
111.118078	3340.063632	2.782669	0.011980	3.289887
111.209723	3346.015781	2.787674	0.011961	3.292547
111.199090	3352.099933	2.792678	0.011962	3.295252
111.283155	3358.049246	2.797683	0.011944	3.297906
111.299244	3364.091466	2.802688	0.011940	3.300590
111.532988	3370.040085	2.807693	0.011895	3.303258
111.558334	3376.095904	2.812698	0.011888	3.305946
111.654932	3382.087285	2.817702	0.011869	3.308611
111.711590	3388.104643	2.822707	0.011857	3.311281
111.837814	3394.084766	2.827712	0.011831	3.313941
111.978986	3400.129191	2.832717	0.011803	3.316629
112.059744	3406.141053	2.837722	0.011787	3.319293
112.232909	3412.118450	2.842726	0.011753	3.321951
112.330181	3418.141109	2.847731	0.011733	3.324618
112.427233	3424.138222	2.852736	0.011713	3.327271
112.550247	3430.171950	2.857741	0.011689	3.329941
112.627048	3436.129030	2.862746	0.011673	3.332570
112.708205	3442.193428	2.867750	0.011656	3.335244
112.639751	3448.171462	2.872755	0.011668	3.337860
112.923959	3454.196729	2.877760	0.011613	3.340538
112.903669	3460.166528	2.882765	0.011615	3.343152
112.936058	3466.228999	2.887770	0.011607	3.345811
113.157807	3472.195747	2.892774	0.011564	3.348449
113.244336	3478.212820	2.897779	0.011547	3.351091
113.208912	3484.235018	2.902784	0.011552	3.353717
113.232722	3490.247595	2.907789	0.011546	3.356345
113.513483	3496.220694	2.912794	0.011492	3.358985
113.740536	3502.240788	2.917798	0.011448	3.361636
113.746240	3508.282740	2.922803	0.011445	3.364269
113.878997	3514.261166	2.927808	0.011419	3.366886
114.085442	3520.271287	2.932813	0.011378	3.369525
114.075255	3526.263599	2.937818	0.011379	3.372127
114.208221	3532.286349	2.942822	0.011352	3.374758
114.208110	3538.286631	2.947827	0.011351	3.377361
114.331642	3544.322181	2.952832	0.011326	3.379992
114.471292	3550.283057	2.957837	0.011299	3.382591
114.455700	3556.337667	2.962842	0.011300	3.385210
114.471163	3562.307502	2.967846	0.011296	3.387794
114.762283	3568.320729	2.972851	0.011240	3.390427
114.735962	3574.339558	2.977856	0.011243	3.393023
114.714326	3580.345043	2.982861	0.011246	3.395612
114.820874	3586.356724	2.987866	0.011224	3.398217
114.932437	3592.349945	2.992870	0.011202	3.400812
115.180242	3598.361092	2.997875	0.011154	3.403429
115.254651	3604.377496	3.002880	0.011138	3.406026
115.480242	3610.362786	3.007885	0.011094	3.408625
115.469130	3616.411248	3.012890	0.011095	3.411222
115.422031	3622.400696	3.017894	0.011102	3.413787
115.764142	3628.381036	3.022899	0.011037	3.416392
115.868034	3634.425622	3.027904	0.011016	3.418994
116.004842	3640.407497	3.032909	0.010989	3.421572
116.020242	3646.435241	3.037914	0.010984	3.424153
116.134028	3652.428918	3.042918	0.010961	3.426729
116.501133	3658.450692	3.047923	0.010891	3.429344
116.553065	3664.433952	3.052928	0.010880	3.431905
116.897267	3670.440670	3.057933	0.010814	3.434507
117.065031	3676.473207	3.062938	0.010781	3.437098
117.188592	3682.485787	3.067942	0.010756	3.439674
117.310904	3688.440906	3.072947	0.010732	3.442222
117.424268	3694.527780	3.077952	0.010709	3.444824
117.532804	3700.490554	3.082957	0.010687	3.447371
117.599109	3706.521510	3.087962	0.010673	3.449940
117.678180	3712.501265	3.092966	0.010657	3.452486
117.702381	3718.518079	3.097971	0.010651	3.455040
117.815541	3724.538022	3.102976	0.010628	3.457604
117.860896	3730.531494	3.107981	0.010618	3.460147
118.101592	3736.511786	3.112986	0.010571	3.462705
118.207316	3742.551723	3.117990	0.010550	3.465271
118.309699	3748.562350	3.122995	0.010529	3.467822
118.365531	3754.560482	3.128000	0.010517	3.470360
118.405811	3760.577613	3.133005	0.010508	3.472903
118.516193	3766.569822	3.138010	0.010486	3.475441
118.525757	3772.596714	3.143014	0.010483	3.477981
118.794459	3778.572035	3.148019	0.010431	3.480527
118.855545	3784.622090	3.153024	0.010418	3.483079
118.983695	3790.596080	3.158029	0.010392	3.485604
118.975885	3796.634223	3.163034	0.010392	3.488139
118.974815	3802.622100	3.168038	0.010391	3.490652
119.228674	3808.616299	3.173043	0.010342	3.493194
119.463482	3814.635781	3.178048	0.010296	3.495744
119.488316	3820.670087	3.183053	0.010290	3.498273
119.409679	3826.637363	3.188058	0.010304	3.500762
119.378608	3832.695382	3.193062	0.010308	3.503291
119.705651	3838.643547	3.198067	0.010245	3.505814
120.124950	3844.666366	3.203072	0.010165	3.508375
120.271815	3850.662169	3.208077	0.010136	3.510894
120.303419	3856.708265	3.213082	0.010128	3.513418
120.437963	3862.697384	3.218086	0.010102	3.515929
121.753331	3868.576880	3.223091	0.009853	3.518523
123.536133	3874.663536	3.228096	0.009517	3.521254
123.816791	3880.727490	3.233101	0.009463	3.523806
123.934731	3886.704931	3.238106	0.009440	3.526302
124.007820	3892.785939	3.243110	0.009424	3.528834
123.871924	3898.735951	3.248115	0.009448	3.531287
124.133553	3904.756409	3.253120	0.009398	3.533812
124.270360	3910.737713	3.258125	0.009371	3.536304
124.256984	3916.799584	3.263130	0.009372	3.538812
124.407522	3922.727667	3.268134	0.009342	3.541280
124.710969	3928.792257	3.273139	0.009284	3.543821
124.893101	3934.771157	3.278144	0.009248	3.546310
125.026906	3940.811100	3.283149	0.009221	3.548818
125.134388	3946.769243	3.288154	0.009200	3.551287
125.276343	3952.841392	3.293158	0.009171	3.553805
125.430975	3958.801568	3.298163	0.009141	3.556277
125.485627	3964.851696	3.303168	0.009129	3.558773
125.547035	3970.808629	3.308173	0.009116	3.561229
125.700362	3976.847157	3.313178	0.009086	3.563728
125.878203	3982.842441	3.318182	0.009051	3.566210
125.978804	3988.868534	3.323187	0.009031	3.568694
125.927833	3994.851424	3.328192	0.009039	3.571142
126.070191	4000.878696	3.333197	0.009011	3.573628
126.195107	4006.865281	3.338202	0.008986	3.576093
126.119597	4012.925036	3.343206	0.008998	3.578565
126.210572	4018.857937	3.348211	0.008980	3.581002
126.395261	4024.923779	3.353216	0.008944	3.583501
126.436118	4030.900362	3.358221	0.008935	3.585946
126.241636	4036.952254	3.363226	0.008970	3.588396
126.550172	4042.893296	3.368230	0.008910	3.590852
126.852972	4048.932782	3.373235	0.008852	3.593346
127.107173	4054.915794	3.378240	0.008803	3.595810
127.150135	4060.963948	3.383245	0.008793	3.598277
127.204660	4066.937990	3.388250	0.008781	3.600712
127.164638	4072.977044	3.393254	0.008787	3.603163
127.390017	4078.955916	3.398259	0.008744	3.605616
127.432683	4084.987665	3.403264	0.008734	3.608069
127.601110	4090.958238	3.408269	0.008701	3.610508
127.577165	4096.976395	3.413274	0.008704	3.612945
127.711351	4102.944096	3.418278	0.008677	3.615377
127.634565	4108.983427	3.423283	0.008690	3.617814
127.809895	4114.940791	3.428288	0.008656	3.620242
127.964578	4120.978709	3.433293	0.008625	3.622700
127.894111	4126.985299	3.438298	0.008637	3.625119
128.069695	4133.013637	3.443302	0.008603	3.627571
128.210327	4138.974755	3.448307	0.008575	3.629991
128.263849	4145.014528	3.453312	0.008563	3.632432
128.432751	4150.984146	3.458317	0.008530	3.634855
128.558026	4157.028138	3.463322	0.008505	3.637302
128.633762	4163.006881	3.468326	0.008489	3.639715
128.686904	4169.056085	3.473331	0.008478	3.642153
128.706150	4175.025693	3.478336	0.008473	3.644554
128.813871	4181.059479	3.483341	0.008451	3.646988
128.902179	4187.038574	3.488346	0.008433	3.649397
128.766870	4193.092915	3.493350	0.008457	3.651811
129.008406	4199.042578	3.498355	0.008410	3.654220
128.973540	4205.089742	3.503360	0.008415	3.656639
129.107463	4211.079235	3.508365	0.008389	3.659050
129.234429	4217.097968	3.513370	0.008363	3.661470
129.237843	4223.106604	3.518374	0.008361	3.663872
129.454348	4229.107106	3.523379	0.008319	3.666292
129.609333	4235.115051	3.528384	0.008289	3.668706
129.616545	4241.124469	3.533389	0.008286	3.671104
129.798336	4247.123330	3.538394	0.008250	3.673514
129.815909	4253.127015	3.543398	0.008245	3.675908
129.854485	4259.169999	3.548403	0.008237	3.678318
130.010682	4265.123880	3.553408	0.008206	3.680703
130.041157	4271.154112	3.558413	0.008199	3.683103
130.059735	4277.162273	3.563418	0.008194	3.685493
130.240714	4283.185290	3.568422	0.008158	3.687903
130.282424	4289.172562	3.573427	0.008149	3.690283
130.454342	4295.174390	3.578432	0.008115	3.692681
130.511570	4301.183625	3.583437	0.008103	3.695068
130.628063	4307.221002	3.588442	0.008080	3.697471
130.747158	4313.185951	3.593446	0.008056	3.699844
130.910324	4319.212979	3.598451	0.008024	3.702245
130.956538	4325.234428	3.603456	0.008013	3.704630
131.173610	4331.234260	3.608461	0.007971	3.707022
131.234080	4337.214025	3.613466	0.007958	3.709388
131.311774	4343.267648	3.618470	0.007942	3.711785
131.269352	4349.239449	3.623475	0.007949	3.714135
131.436227	4355.257514	3.628480	0.007916	3.716523
131.522808	4361.267487	3.633485	0.007898	3.718898
131.632681	4367.273821	3.638490	0.007876	3.721273
131.695189	4373.281018	3.643494	0.007863	3.723641
131.824263	4379.297378	3.648499	0.007837	3.726019
131.814663	4385.286123	3.653504	0.007838	3.728370
132.105770	4391.281769	3.658509	0.007781	3.730752
132.231848	4397.335255	3.663514	0.007756	3.733139
132.383150	4403.310588	3.668518	0.007726	3.735497
132.397986	4409.349104	3.673523	0.007722	3.737864
132.718046	4415.274976	3.678528	0.007661	3.740216
132.737563	4421.361506	3.683533	0.007655	3.742599
132.884488	4427.331004	3.688538	0.007626	3.744948
132.926620	4433.366005	3.693542	0.007617	3.747310
132.990833	4439.344070	3.698547	0.007603	3.749651
133.145537	4445.360644	3.703552	0.007573	3.752014
133.264924	4451.382800	3.708557	0.007549	3.754375
133.238326	4457.404794	3.713562	0.007553	3.756720
133.384328	4463.371760	3.718566	0.007524	3.759058
133.362933	4469.423223	3.723571	0.007526	3.761412
133.671462	4475.381690	3.728576	0.007467	3.763760
133.752231	4481.431900	3.733581	0.007450	3.766121
133.876445	4487.425982	3.738586	0.007425	3.768462
133.971070	4493.444965	3.743590	0.007406	3.770808
134.055581	4499.405099	3.748595	0.007389	3.773129
134.159712	4505.463060	3.753600	0.007368	3.775489
134.239167	4511.448063	3.758605	0.007351	3.777817
134.390196	4517.432545	3.763610	0.007322	3.780149
134.443570	4523.478354	3.768614	0.007310	3.782495
134.410644	4529.473681	3.773619	0.007315	3.784811
134.506700	4535.475103	3.778624	0.007295	3.787141
134.524357	4541.478869	3.783629	0.007290	3.789462
134.776917	4547.506032	3.788634	0.007242	3.791814
134.846598	4553.492933	3.793638	0.007227	3.794131
134.897311	4559.506078	3.798643	0.007216	3.796455
135.086202	4565.505459	3.803648	0.007179	3.798786
135.081296	4571.531819	3.808653	0.007179	3.801107
135.196148	4577.530385	3.813658	0.007155	3.803427
135.389872	4583.536561	3.818662	0.007118	3.805756
135.399632	4589.548445	3.823667	0.007114	3.808069
135.567406	4595.523051	3.828672	0.007081	3.810381
135.552682	4601.592278	3.833677	0.007083	3.812710
135.640318	4607.541317	3.838682	0.007065	3.815001
135.644481	4613.578209	3.843686	0.007062	3.817317
135.984752	4619.542695	3.848691	0.006997	3.819636
135.984491	4625.602751	3.853696	0.006996	3.821958
136.226874	4631.585149	3.858701	0.006949	3.824271
136.225204	4637.599896	3.863706	0.006948	3.826572
136.381751	4643.597070	3.868710	0.006917	3.828880
136.475906	4649.622357	3.873715	0.006897	3.831192
136.698183	4655.607391	3.878720	0.006854	3.833499
136.815632	4661.630212	3.883725	0.006831	3.835809
137.053333	4667.629488	3.888730	0.006785	3.838120
137.087463	4673.674523	3.893734	0.006777	3.840427
137.222658	4679.628620	3.898739	0.006750	3.842709
137.345693	4685.681172	3.903744	0.006725	3.845025
137.560625	4691.666383	3.908749	0.006684	3.847323
137.489809	4697.718201	3.913754	0.006695	3.849618
137.517130	4703.682910	3.918758	0.006689	3.851887
137.529516	4709.689350	3.923763	0.006685	3.854170
137.578943	4715.685324	3.928768	0.006674	3.856451
137.860082	4721.684789	3.933773	0.006620	3.858754
138.001343	4727.703337	3.938778	0.006592	3.861049
138.093210	4733.711270	3.943782	0.006573	3.863334
138.169588	4739.743088	3.948787	0.006557	3.865626
138.277437	4745.706462	3.953792	0.006536	3.867893
138.485427	4751.754555	3.958797	0.006495	3.870200
138.485793	4757.748079	3.963802	0.006494	3.872466
138.788096	4763.724238	3.968806	0.006435	3.874752
138.842334	4769.767945	3.973811	0.006424	3.877039
138.777356	4775.764068	3.978816	0.006434	3.879296
138.878187	4781.776211	3.983821	0.006414	3.881573
139.015696	4787.778850	3.988826	0.006387	3.883848
139.127218	4793.793888	3.993830	0.006364	3.886124
139.247354	4799.779718	3.998835	0.006340	3.888389
139.256881	4805.810104	4.003840	0.006337	3.890659
139.314027	4811.817495	4.008845	0.006325	3.892924
139.474632	4817.797463	4.013850	0.006293	3.895186
139.627077	4823.829520	4.018854	0.006263	3.897465
139.774762	4829.836385	4.023859	0.006234	3.899734
139.923125	4835.839161	4.028864	0.006205	3.901999
139.880383	4841.844320	4.033869	0.006211	3.904247
139.984994	4847.875578	4.038874	0.006190	3.906517
140.096052	4853.862971	4.043878	0.006168	3.908770
140.126420	4859.865036	4.048883	0.006160	3.911019
140.259278	4865.846640	4.053888	0.006134	3.913269
140.415506	4871.900443	4.058893	0.006103	3.915546
140.384755	4877.883451	4.063898	0.006108	3.917779
140.481114	4883.907775	4.068902	0.006088	3.920037
140.540404	4889.893511	4.073907	0.006075	3.922277
140.705196	4895.894960	4.078912	0.006043	3.924530
140.747827	4901.942739	4.083917	0.006033	3.926789
140.757858	4907.923910	4.088922	0.006030	3.929018
140.828792	4913.924036	4.093926	0.006015	3.931259
140.983753	4919.918342	4.098931	0.005985	3.933504
141.156792	4925.954623	4.103936	0.005951	3.935764
141.320727	4931.947912	4.108941	0.005919	3.938007
141.446001	4937.973294	4.113946	0.005894	3.940257
141.482780	4943.976278	4.118950	0.005885	3.942489
141.420709	4949.971003	4.123955	0.005895	3.944708
141.680021	4956.004170	4.128960	0.005845	3.946969
141.565517	4962.003918	4.133965	0.005865	3.949182
141.754291	4967.980880	4.138970	0.005828	3.951413
141.811106	4973.972572	4.143974	0.005816	3.953637
141.921537	4980.024070	4.148979	0.005794	3.955886
142.071465	4986.023202	4.153984	0.005764	3.958118
142.215034	4992.028993	4.158989	0.005736	3.960350
142.401840	4998.029633	4.163994	0.005699	3.962584
142.479379	5004.042828	4.168998	0.005683	3.964810
142.556059	5010.037640	4.174003	0.005667	3.967029
142.610620	5016.046181	4.179008	0.005656	3.969250
142.653301	5022.075336	4.184013	0.005646	3.971476
142.784038	5028.065799	4.189018	0.005620	3.973694
142.846787	5034.090215	4.194022	0.005607	3.975918
142.996915	5040.053188	4.199027	0.005577	3.978125
143.071514	5046.090080	4.204032	0.005562	3.980351
143.225747	5052.087745	4.209037	0.005531	3.982569
143.331315	5058.122438	4.214042	0.005510	3.984795
143.426841	5064.108489	4.219046	0.005491	3.987001
143.473813	5070.125538	4.224051	0.005480	3.989213
143.745864	5076.133688	4.229056	0.005428	3.991440
143.776248	5082.126498	4.234061	0.005421	3.993639
143.876460	5088.147082	4.239066	0.005400	3.995853
144.070155	5094.131114	4.244070	0.005362	3.998061
144.287520	5100.171856	4.249075	0.005320	4.000290
144.345217	5106.160554	4.254080	0.005308	4.002485
144.878446	5112.174048	4.259085	0.005206	4.004729
144.903266	5118.177245	4.264090	0.005200	4.006924
145.121632	5124.168240	4.269094	0.005158	4.009130
145.217829	5130.210125	4.274099	0.005138	4.011343
145.540923	5136.168794	4.279104	0.005076	4.013544
145.597768	5142.216396	4.284109	0.005064	4.015753
145.745102	5148.181871	4.289114	0.005035	4.017938
145.887781	5154.234091	4.294118	0.005007	4.020154
145.826829	5160.223191	4.299123	0.005016	4.022328
146.048208	5166.231102	4.304128	0.004973	4.024532
146.085991	5172.249194	4.309133	0.004965	4.026723
146.159236	5178.266604	4.314138	0.004950	4.028915
146.343153	5184.252054	4.319142	0.004914	4.031104
146.353742	5190.248531	4.324147	0.004910	4.033281
146.651272	5196.265809	4.329152	0.004853	4.035489
146.498872	5202.295598	4.334157	0.004880	4.037661
146.590363	5208.286501	4.339162	0.004861	4.039840
146.715247	5214.284129	4.344166	0.004836	4.042022
146.760732	5220.314711	4.349171	0.004826	4.044208
146.817133	5226.302876	4.354176	0.004814	4.046379
146.916826	5232.295470	4.359181	0.004794	4.048554
146.962458	5238.340161	4.364186	0.004784	4.050742
147.124179	5244.321474	4.369190	0.004752	4.052915
147.171226	5250.342994	4.374195	0.004742	4.055093
147.301246	5256.307892	4.379200	0.004716	4.057255
147.294551	5262.352670	4.384205	0.004716	4.059434
147.440188	5268.355109	4.389210	0.004687	4.061609
147.451014	5274.378940	4.394214	0.004683	4.063779
147.543488	5280.390634	4.399219	0.004665	4.065951
147.589612	5286.342486	4.404224	0.004654	4.068096
147.688823	5292.395567	4.409229	0.004634	4.070281
147.577993	5298.393413	4.414234	0.004654	4.072427
147.902707	5304.395039	4.419238	0.004591	4.074610
147.804642	5310.384996	4.424243	0.004608	4.076752
147.841473	5316.425404	4.429248	0.004600	4.078923
147.937201	5322.413728	4.434253	0.004580	4.081078
148.024542	5328.426351	4.439258	0.004562	4.083240
148.148856	5334.432853	4.444262	0.004538	4.085402
148.308915	5340.432658	4.449267	0.004506	4.087564
148.110383	5346.462821	4.454272	0.004542	4.089706
148.319025	5352.443077	4.459277	0.004501	4.091862
148.352300	5358.473655	4.464282	0.004494	4.094020
148.470211	5364.454010	4.469286	0.004470	4.096167
148.545100	5370.473608	4.474291	0.004454	4.098322
148.515273	5376.500174	4.479296	0.004458	4.100471
148.651940	5382.470924	4.484301	0.004431	4.102612
148.832665	5388.526781	4.489306	0.004396	4.104786
148.853092	5394.477826	4.494310	0.004391	4.106908
148.944859	5400.517435	4.499315	0.004372	4.109067
148.978934	5406.511092	4.504320	0.004364	4.111203
149.090577	5412.537655	4.509325	0.004342	4.113356
149.008468	5418.537645	4.514330	0.004356	4.115483
149.223881	5424.525925	4.519334	0.004314	4.117629
149.333209	5430.556417	4.524339	0.004292	4.119780
149.354011	5436.558270	4.529344	0.004286	4.121913
149.385050	5442.567083	4.534349	0.004279	4.124048
149.616782	5448.560917	4.539354	0.004234	4.126192
149.519508	5454.577729	4.544358	0.004251	4.128317
149.825819	5460.581345	4.549363	0.004192	4.130469
149.921361	5466.573195	4.554368	0.004172	4.132598
149.951193	5472.602411	4.559373	0.004165	4.134735
150.060719	5478.588545	4.564378	0.004143	4.136861
150.197974	5484.626319	4.569382	0.004116	4.139007
150.259745	5490.605632	4.574387	0.004103	4.141125
150.459615	5496.653338	4.579392	0.004064	4.143277
150.526815	5502.642986	4.584397	0.004050	4.145397
150.612655	5508.608530	4.589402	0.004032	4.147508
150.550458	5514.644917	4.594406	0.004042	4.149632
150.636381	5520.653802	4.599411	0.004025	4.151757
150.725971	5526.668526	4.604416	0.004006	4.153883
150.812680	5532.684356	4.609421	0.003989	4.156008
151.063755	5538.682484	4.614426	0.003940	4.158139
151.089959	5544.698584	4.619430	0.003934	4.160257
151.158604	5550.674524	4.624435	0.003919	4.162364
151.360637	5556.717927	4.629440	0.003880	4.164503
151.254806	5562.703427	4.634445	0.003898	4.166597
151.530097	5568.726091	4.639450	0.003845	4.168733
151.483948	5574.719472	4.644454	0.003852	4.170832
151.739467	5580.726136	4.649459	0.003803	4.172959
151.686281	5586.749443	4.654464	0.003811	4.175066
151.791008	5592.720147	4.659469	0.003790	4.177166
151.959321	5598.757360	4.664474	0.003757	4.179293
152.095855	5604.743210	4.669478	0.003730	4.181398
152.125465	5610.754080	4.674483	0.003723	4.183503
152.371907	5616.770817	4.679488	0.003675	4.185626
152.352156	5622.765700	4.684493	0.003678	4.187719
152.515497	5628.805288	4.689498	0.003645	4.189841
152.624751	5634.768731	4.694502	0.003623	4.191931
152.682567	5640.794903	4.699507	0.003611	4.194038
152.739171	5646.791266	4.704512	0.003599	4.196134
152.895467	5652.820600	4.709517	0.003568	4.198247
153.018589	5658.831677	4.714522	0.003544	4.200351
153.156792	5664.794067	4.719526	0.003516	4.202438
153.293305	5670.845093	4.724531	0.003489	4.204554
153.358133	5676.825237	4.729536	0.003475	4.206639
153.500751	5682.845151	4.734541	0.003447	4.208743
153.636218	5688.836462	4.739546	0.003420	4.210836
153.646646	5694.863677	4.744550	0.003417	4.212930
153.762309	5700.893280	4.749555	0.003394	4.215032
153.838657	5706.858070	4.754560	0.003378	4.217107
153.835541	5712.872966	4.759565	0.003377	4.219193
154.011737	5718.875879	4.764570	0.003342	4.221287
154.129851	5724.904478	4.769574	0.003319	4.223385
154.196315	5730.866265	4.774579	0.003305	4.225455
154.395308	5736.888645	4.779584	0.003266	4.227554
154.363990	5742.943650	4.784589	0.003270	4.229647
154.486826	5748.915613	4.789594	0.003246	4.231721
154.520389	5754.915451	4.794598	0.003238	4.233797
154.579816	5760.937019	4.799603	0.003225	4.235881
154.597489	5766.983336	4.804608	0.003221	4.237970
154.758698	5772.951635	4.809613	0.003189	4.240042
154.768848	5778.948532	4.814618	0.003185	4.242111
154.931313	5784.986817	4.819622	0.003153	4.244205
154.979487	5790.954194	4.824627	0.003143	4.246265
155.136578	5796.975201	4.829632	0.003112	4.248351
155.232458	5803.003436	4.834637	0.003092	4.250433
155.387516	5809.002786	4.839642	0.003062	4.252509
155.478800	5815.005323	4.844646	0.003043	4.254580
155.666739	5820.981734	4.849651	0.003007	4.256648
155.786629	5827.028561	4.854656	0.002983	4.258735
155.765554	5832.987915	4.859661	0.002985	4.260780
155.824673	5839.043805	4.864666	0.002972	4.262863
156.080327	5845.053914	4.869670	0.002923	4.264944
155.963901	5851.007940	4.874675	0.002943	4.266977
156.184714	5857.077981	4.879680	0.002900	4.269073
156.127530	5863.045945	4.884685	0.002910	4.271114
156.407148	5869.052824	4.889690	0.002856	4.273191
156.367344	5875.069352	4.894694	0.002862	4.275247
156.581125	5881.075377	4.899699	0.002820	4.277317
156.562850	5887.077578	4.904704	0.002822	4.279368
156.689884	5893.099005	4.909709	0.002797	4.281435
156.842179	5899.094213	4.914714	0.002767	4.283494
157.032826	5905.095133	4.919718	0.002729	4.285557
156.985707	5911.118788	4.924723	0.002737	4.287609
157.205116	5917.115787	4.929728	0.002694	4.289670
157.233888	5923.123519	4.934733	0.002687	4.291721
157.306648	5929.133910	4.939738	0.002672	4.293774
157.325908	5935.129282	4.944742	0.002667	4.295817
157.505270	5941.149342	4.949747	0.002632	4.297880
157.401435	5947.155606	4.954752	0.002650	4.299916
157.409542	5953.203282	4.959757	0.002647	4.301973
157.678676	5959.144136	4.964762	0.002595	4.304012
157.762636	5965.148416	4.969766	0.002578	4.306058
157.816538	5971.197833	4.974771	0.002566	4.308117
157.912719	5977.189676	4.979776	0.002546	4.310158
157.912138	5983.192034	4.984781	0.002545	4.312194
158.051242	5989.217354	4.989786	0.002517	4.314247
158.048052	5995.187293	4.994790	0.002517	4.316271
158.152732	5999.314232	4.999795	0.002496	4.317677
158.084075	5999.420919	5.004800	0.002509	4.317708
158.193895	5999.417951	5.009805	0.002488	4.317715
158.263268	5999.423543	5.014810	0.002475	4.317722
158.327760	5999.386855	5.019814	0.002463	4.317714
158.389035	5999.442083	5.024819	0.002452	4.317737
158.466376	5999.427558	5.029824	0.002437	4.317738
158.440124	5999.460761	5.034829	0.002442	4.317747
158.451046	5999.421587	5.039834	0.002440	4.317734
158.438100	5999.383777	5.044838	0.002442	4.317721
158.568153	5999.390351	5.049843	0.002418	4.317732
158.483072	5999.452593	5.054848	0.002434	4.317747
158.465907	5999.425814	5.059853	0.002437	4.317737
158.481707	5999.440902	5.064858	0.002434	4.317743
158.555478	5999.398563	5.069862	0.002420	4.317734
158.608387	5999.390130	5.074867	0.002410	4.317735
158.650410	5999.465101	5.079872	0.002403	4.317763
158.714453	5999.414684	5.084877	0.002391	4.317751
158.711181	5999.379434	5.089882	0.002391	4.317739
158.572996	5999.495308	5.094886	0.002417	4.317768
158.753686	5999.379654	5.099891	0.002383	4.317742
158.697931	5999.434769	5.104896	0.002394	4.317757
158.704555	5999.458250	5.109901	0.002392	4.317765
158.684612	5999.364782	5.114906	0.002396	4.317732
158.725068	5999.489851	5.119910	0.002388	4.317777
158.682654	5999.395609	5.124915	0.002396	4.317742
158.806931	5999.387739	5.129920	0.002373	4.317748
158.748819	5999.480216	5.134925	0.002384	4.317776
158.802237	5999.364771	5.139930	0.002374	4.317740
158.785434	5999.501958	5.144934	0.002377	4.317786
158.858148	5999.378743	5.149939	0.002364	4.317749
158.737262	5999.476211	5.154944	0.002386	4.317773
158.771854	5999.402535	5.159949	0.002380	4.317751
158.795843	5999.370732	5.164954	0.002375	4.317742
158.924037	5999.478155	5.169958	0.002351	4.317788
158.809337	5999.384465	5.174963	0.002373	4.317748
158.815021	5999.480030	5.179968	0.002372	4.317780
158.962896	5999.363026	5.184973	0.002344	4.317751
158.947938	5999.483234	5.189978	0.002347	4.317791
158.981265	5999.425493	5.194982	0.002340	4.317774
159.002602	5999.408075	5.199987	0.002336	4.317769
158.879033	5999.477542	5.204992	0.002360	4.317784
159.054528	5999.381419	5.209997	0.002327	4.317764
158.990851	5999.413327	5.215002	0.002339	4.317770
159.196635	5999.455486	5.220006	0.002300	4.317799
158.925271	5999.478815	5.225011	0.002351	4.317788
158.991477	5999.381860	5.230016	0.002339	4.317760
158.947069	5999.462222	5.235021	0.002347	4.317784
158.993188	5999.380576	5.240026	0.002338	4.317759
158.967207	5999.474549	5.245030	0.002343	4.317789
159.005388	5999.367857	5.250035	0.002336	4.317756
159.032716	5999.453312	5.255040	0.002331	4.317787
159.079707	5999.365952	5.260045	0.002322	4.317761
159.064365	5999.454908	5.265050	0.002325	4.317790
159.194917	5999.450320	5.270054	0.002300	4.317798
159.134901	5999.421549	5.275059	0.002312	4.317783
159.195571	5999.387512	5.280064	0.002300	4.317776
158.980199	5999.464426	5.285069	0.002341	4.317787
159.176866	5999.442159	5.290074	0.002304	4.317793
159.110231	5999.432299	5.295078	0.002316	4.317785
159.124322	5999.420101	5.300083	0.002314	4.317782
158.975791	5999.387023	5.305088	0.002341	4.317760
159.222398	5999.421464	5.310093	0.002295	4.317790
159.083287	5999.440766	5.315098	0.002321	4.317786
159.182841	5999.450111	5.320102	0.002303	4.317797
159.103392	5999.429139	5.325107	0.002318	4.317784
159.248822	5999.449971	5.330112	0.002290	4.317801
159.143104	5999.445618	5.335117	0.002310	4.317792
159.050631	5999.372106	5.340122	0.002327	4.317761
158.990184	5999.455862	5.345126	0.002339	4.317785
159.178139	5999.454792	5.350131	0.002303	4.317798
159.020803	5999.395929	5.355136	0.002333	4.317767
159.235034	5999.410495	5.360141	0.002293	4.317787
158.920143	5999.451331	5.365146	0.002352	4.317778
159.156180	5999.458518	5.370150	0.002308	4.317798
159.147851	5999.386552	5.375155	0.002309	4.317773
159.257989	5999.396421	5.380160	0.002289	4.317784
159.088115	5999.446196	5.385165	0.002320	4.317788
159.189650	5999.434846	5.390170	0.002301	4.317792
159.287114	5999.416984	5.395174	0.002283	4.317793
159.380074	5999.412057	5.400179	0.002266	4.317798
159.338449	5999.395061	5.405184	0.002273	4.317789
159.317844	5999.433521	5.410189	0.002277	4.317801
159.288486	5999.483050	5.415194	0.002283	4.317815
159.315550	5999.440458	5.420198	0.002278	4.317803
159.378103	5999.383904	5.425203	0.002266	4.317788
159.515342	5999.399098	5.430208	0.002240	4.317803
159.321017	5999.511187	5.435213	0.002277	4.317827
159.490767	5999.412593	5.440218	0.002245	4.317806
159.150656	5999.431117	5.445222	0.002309	4.317788
159.281070	5999.446833	5.450227	0.002284	4.317803
159.278461	5999.404070	5.455232	0.002285	4.317788
159.469708	5999.398618	5.460237	0.002249	4.317800
159.162554	5999.427677	5.465242	0.002306	4.317788
159.388260	5999.419541	5.470246	0.002264	4.317801
159.339449	5999.501757	5.475251	0.002273	4.317825
159.336221	5999.413965	5.480256	0.002274	4.317795
159.187844	5999.471171	5.485261	0.002302	4.317804
159.392958	5999.427763	5.490266	0.002263	4.317804
159.189210	5999.443233	5.495270	0.002301	4.317795
159.406732	5999.421161	5.500275	0.002261	4.317803
159.266291	5999.391899	5.505280	0.002287	4.317783
159.307551	5999.427405	5.510285	0.002279	4.317798
159.371405	5999.436010	5.515290	0.002267	4.317805
159.484004	5999.472087	5.520294	0.002246	4.317826
159.290735	5999.418983	5.525299	0.002282	4.317794
159.378744	5999.432614	5.530304	0.002266	4.317805
159.332604	5999.409200	5.535309	0.002275	4.317793
159.473416	5999.407971	5.540314	0.002248	4.317803
159.306465	5999.393535	5.545318	0.002279	4.317786
159.319535	5999.427634	5.550323	0.002277	4.317799
159.348114	5999.490707	5.555328	0.002272	4.317822
159.428276	5999.411994	5.560333	0.002257	4.317801
159.450546	5999.387927	5.565338	0.002252	4.317795
159.544612	5999.499812	5.570342	0.002235	4.317839
159.307974	5999.424551	5.575347	0.002279	4.317797
159.341858	5999.419223	5.580352	0.002273	4.317798
159.358622	5999.383419	5.585357	0.002270	4.317787
159.377031	5999.425604	5.590362	0.002266	4.317802
159.466711	5999.480354	5.595366	0.002249	4.317827
159.537077	5999.408323	5.600371	0.002236	4.317808
159.460542	5999.384890	5.605376	0.002251	4.317794
159.413718	5999.431664	5.610381	0.002259	4.317807
159.448145	5999.465851	5.615386	0.002253	4.317821
159.500813	5999.404016	5.620390	0.002243	4.317804
159.448956	5999.474896	5.625395	0.002253	4.317824
159.485469	5999.405420	5.630400	0.002246	4.317803
159.517846	5999.452022	5.635405	0.002240	4.317821
159.505894	5999.425060	5.640410	0.002242	4.317811
159.378439	5999.387519	5.645414	0.002266	4.317789
159.363437	5999.418343	5.650419	0.002269	4.317799
159.449163	5999.495128	5.655424	0.002253	4.317831
159.526186	5999.401411	5.660429	0.002238	4.317805
159.447880	5999.464985	5.665434	0.002253	4.317821
159.532490	5999.384409	5.670438	0.002237	4.317799
159.476890	5999.474514	5.675443	0.002247	4.317826
159.683112	5999.364515	5.680448	0.002209	4.317803
159.550689	5999.460739	5.685453	0.002234	4.317827
159.486277	5999.394189	5.690458	0.002246	4.317799
159.333970	5999.503838	5.695462	0.002274	4.317826
159.542549	5999.388732	5.700467	0.002235	4.317802
159.475091	5999.483189	5.705472	0.002248	4.317829
159.583072	5999.393981	5.710477	0.002228	4.317806
159.486975	5999.424455	5.715482	0.002246	4.317810
159.509075	5999.481527	5.720486	0.002241	4.317831
159.493319	5999.389013	5.725491	0.002244	4.317798
159.532603	5999.402818	5.730496	0.002237	4.317806
159.529218	5999.468048	5.735501	0.002238	4.317827
159.650314	5999.388967	5.740506	0.002215	4.317809
159.551400	5999.463354	5.745510	0.002233	4.317827
159.527251	5999.394734	5.750515	0.002238	4.317803
159.421374	5999.476125	5.755520	0.002258	4.317822
159.530794	5999.396750	5.760525	0.002237	4.317803
159.426582	5999.479631	5.765530	0.002257	4.317824
159.551351	5999.382261	5.770534	0.002233	4.317800
159.481592	5999.455086	5.775539	0.002247	4.317820
159.621210	5999.420931	5.780544	0.002220	4.317818
159.431124	5999.393880	5.785549	0.002256	4.317795
159.603668	5999.492844	5.790554	0.002224	4.317841
159.473107	5999.384074	5.795558	0.002248	4.317795
159.644030	5999.479695	5.800563	0.002216	4.317840
159.513922	5999.369907	5.805568	0.002240	4.317793
159.523470	5999.470186	5.810573	0.002239	4.317828
159.455654	5999.434770	5.815578	0.002251	4.317811
159.653259	5999.385579	5.820582	0.002214	4.317808
159.550805	5999.456107	5.825587	0.002234	4.317825
159.644305	5999.386552	5.830592	0.002216	4.317808
159.520718	5999.491966	5.835597	0.002239	4.317835
159.552352	5999.399560	5.840602	0.002233	4.317806
159.555324	5999.456993	5.845606	0.002233	4.317826
159.534264	5999.395094	5.850611	0.002237	4.317803
159.522325	5999.465820	5.855616	0.002239	4.317826
159.657387	5999.387470	5.860621	0.002214	4.317809
159.526081	5999.468712	5.865626	0.002238	4.317827
159.618768	5999.394721	5.870630	0.002221	4.317809
159.601663	5999.465620	5.875635	0.002224	4.317832
159.734330	5999.367500	5.880640	0.002199	4.317808
159.694891	5999.456950	5.885645	0.002207	4.317836
159.758382	5999.449965	5.890650	0.002195	4.317838
159.555196	5999.366702	5.895654	0.002233	4.317795
159.646518	5999.494836	5.900659	0.002216	4.317845
159.626026	5999.366458	5.905664	0.002219	4.317800
159.568780	5999.467970	5.910669	0.002230	4.317830
159.467573	5999.405521	5.915674	0.002249	4.317802
159.706979	5999.449784	5.920678	0.002204	4.317834
159.662733	5999.441636	5.925683	0.002213	4.317828
159.572277	5999.381519	5.930688	0.002230	4.317801
159.564368	5999.437569	5.935693	0.002231	4.317820
159.588776	5999.484014	5.940698	0.002226	4.317837
159.678992	5999.411468	5.945702	0.002210	4.317819
159.678930	5999.452954	5.950707	0.002210	4.317833
159.488984	5999.377028	5.955712	0.002245	4.317794
159.650882	5999.475480	5.960717	0.002215	4.317839
159.509999	5999.377188	5.965722	0.002241	4.317795
159.578534	5999.493555	5.970726	0.002228	4.317840
159.570907	5999.365220	5.975731	0.002230	4.317796
159.562167	5999.482273	5.980736	0.002231	4.317835
159.632511	5999.451718	5.985741	0.002218	4.317829
159.667892	5999.361285	5.990746	0.002212	4.317801
159.721678	5999.442065	5.995750	0.002201	4.317832
159.619760	5999.387138	6.000755	0.002221	4.317807
159.687510	5999.464963	6.005760	0.002208	4.317838
159.742666	5999.388777	6.010765	0.002198	4.317816
159.668927	5999.478112	6.015770	0.002211	4.317841
159.834661	5999.443039	6.020774	0.002180	4.317841
159.696548	5999.360750	6.025779	0.002206	4.317803
159.712186	5999.444074	6.030784	0.002203	4.317832
159.545407	5999.463700	6.035789	0.002235	4.317827
159.819884	5999.446166	6.040794	0.002183	4.317841
159.687944	5999.428928	6.045798	0.002208	4.317826
159.652234	5999.367363	6.050803	0.002215	4.317802
159.720801	5999.441329	6.055808	0.002202	4.317832
159.753384	5999.476829	6.060813	0.002196	4.317847
159.633939	5999.369392	6.065818	0.002218	4.317802
159.805883	5999.449129	6.070822	0.002186	4.317841
159.617226	5999.475229	6.075827	0.002221	4.317836
159.644800	5999.391055	6.080832	0.002216	4.317810
159.743066	5999.462423	6.085837	0.002197	4.317841
159.844968	5999.384638	6.090842	0.002178	4.317822
159.794829	5999.411838	6.095846	0.002188	4.317827
159.873246	5999.421971	6.100851	0.002173	4.317837
159.834357	5999.476282	6.105856	0.002180	4.317852
159.854257	5999.442579	6.110861	0.002177	4.317842
159.846604	5999.415628	6.115866	0.002178	4.317832
159.932368	5999.426049	6.120870	0.002162	4.317842
159.839889	5999.438246	6.125875	0.002179	4.317840
159.836400	5999.450044	6.130880	0.002180	4.317843
159.841517	5999.411174	6.135885	0.002179	4.317831
160.007977	5999.397145	6.140890	0.002148	4.317838
159.914252	5999.491632	6.145894	0.002165	4.317863
159.975244	5999.418819	6.150899	0.002154	4.317843
159.861340	5999.416196	6.155904	0.002175	4.317834
159.947886	5999.422765	6.160909	0.002159	4.317842
159.826588	5999.436453	6.165914	0.002182	4.317838
159.920313	5999.439660	6.170918	0.002164	4.317846
160.024784	5999.400040	6.175923	0.002145	4.317840
160.053607	5999.497165	6.180928	0.002139	4.317875
159.896689	5999.431756	6.185933	0.002169	4.317842
159.958303	5999.355124	6.190938	0.002157	4.317820
159.925265	5999.499440	6.195942	0.002163	4.317867
160.013536	5999.427305	6.200947	0.002147	4.317848
160.006390	5999.400246	6.205952	0.002148	4.317839
160.003927	5999.409984	6.210957	0.002149	4.317842
159.994215	5999.493144	6.215962	0.002150	4.317869
159.934878	5999.372984	6.220966	0.002162	4.317824
159.867926	5999.434156	6.225971	0.002174	4.317840
159.936053	5999.433564	6.230976	0.002161	4.317845
159.891518	5999.424555	6.235981	0.002170	4.317839
160.072981	5999.408273	6.240986	0.002136	4.317846
159.998193	5999.490459	6.245990	0.002150	4.317869
160.067265	5999.405797	6.250995	0.002137	4.317845
160.135156	5999.463318	6.256000	0.002124	4.317869
160.112479	5999.411896	6.261005	0.002128	4.317850
160.192071	5999.442979	6.266010	0.002113	4.317867
160.211192	5999.455522	6.271014	0.002110	4.317872
160.126354	5999.430158	6.276019	0.002126	4.317857
160.250585	5999.358708	6.281024	0.002102	4.317842
160.048908	5999.464980	6.286029	0.002140	4.317864
159.954213	5999.402993	6.291034	0.002158	4.317836
160.104169	5999.442226	6.296038	0.002130	4.317860
160.049752	5999.455585	6.301043	0.002140	4.317861
160.069863	5999.419993	6.306048	0.002136	4.317850
160.101000	5999.400501	6.311053	0.002130	4.317846
160.140137	5999.453969	6.316058	0.002123	4.317867
160.260994	5999.442218	6.321062	0.002100	4.317871
160.187431	5999.455020	6.326067	0.002114	4.317870
160.101293	5999.440070	6.331072	0.002130	4.317859
160.190078	5999.431419	6.336077	0.002114	4.317862
160.162229	5999.451137	6.341082	0.002119	4.317867
160.086115	5999.357569	6.346086	0.002133	4.317830
160.145075	5999.464905	6.351091	0.002122	4.317871
160.054467	5999.465647	6.356096	0.002139	4.317864
160.030939	5999.404267	6.361101	0.002143	4.317842
159.968507	5999.399047	6.366106	0.002155	4.317836
159.975387	5999.504501	6.371110	0.002154	4.317872
159.998522	5999.440620	6.376115	0.002150	4.317852
160.042450	5999.387085	6.381120	0.002141	4.317837
160.137907	5999.449833	6.386125	0.002123	4.317865
160.108583	5999.411799	6.391130	0.002129	4.317850
160.110615	5999.421507	6.396134	0.002129	4.317853
160.189137	5999.450051	6.401139	0.002114	4.317869
160.197765	5999.415968	6.406144	0.002112	4.317858
160.050985	5999.482052	6.411149	0.002140	4.317870
160.076984	5999.374247	6.416154	0.002135	4.317835
160.180547	5999.461086	6.421158	0.002115	4.317872
160.261042	5999.416402	6.426163	0.002100	4.317862
160.040122	5999.486194	6.431168	0.002142	4.317870
160.112069	5999.368666	6.436173	0.002128	4.317836
160.098346	5999.484011	6.441178	0.002131	4.317874
160.052512	5999.466982	6.446182	0.002139	4.317865
160.073651	5999.393385	6.451187	0.002135	4.317841
160.052143	5999.470747	6.456192	0.002139	4.317866
160.134410	5999.405412	6.461197	0.002124	4.317850
160.189884	5999.433303	6.466202	0.002114	4.317863
160.209631	5999.449401	6.471206	0.002110	4.317870
160.107935	5999.457097	6.476211	0.002129	4.317865
160.124061	5999.375345	6.481216	0.002126	4.317839
160.086443	5999.451507	6.486221	0.002133	4.317862
160.154066	5999.463003	6.491226	0.002120	4.317871
160.108513	5999.371262	6.496230	0.002129	4.317836
160.032826	5999.491424	6.501235	0.002143	4.317872
160.031748	5999.387507	6.506240	0.002143	4.317836
160.015143	5999.485028	6.511245	0.002146	4.317868
159.999972	5999.365660	6.516250	0.002149	4.317827
160.043256	5999.475392	6.521254	0.002141	4.317867
160.163204	5999.433420	6.526259	0.002119	4.317861
160.012675	5999.390621	6.531264	0.002147	4.317836
160.088018	5999.452095	6.536269	0.002133	4.317862
160.180636	5999.472126	6.541274	0.002115	4.317876
160.185672	5999.366915	6.546278	0.002114	4.317840
160.304932	5999.435685	6.551283	0.002092	4.317872
160.276777	5999.433348	6.556288	0.002097	4.317869
160.176853	5999.465554	6.561293	0.002116	4.317873
160.135865	5999.450265	6.566298	0.002124	4.317865
160.160276	5999.458002	6.571302	0.002119	4.317869
160.235350	5999.391424	6.576307	0.002105	4.317852
160.165416	5999.473504	6.581312	0.002118	4.317875
160.088463	5999.381035	6.586317	0.002133	4.317838
160.238261	5999.463619	6.591322	0.002105	4.317877
160.005348	5999.394937	6.596326	0.002148	4.317837
160.266104	5999.470630	6.601331	0.002099	4.317881
160.174585	5999.391380	6.606336	0.002117	4.317848
160.127250	5999.482502	6.611341	0.002125	4.317875
160.020757	5999.387989	6.616346	0.002145	4.317836
160.196714	5999.455821	6.621350	0.002112	4.317871
160.166948	5999.433549	6.626355	0.002118	4.317862
160.226211	5999.446814	6.631360	0.002107	4.317870
160.181784	5999.435018	6.636365	0.002115	4.317863
160.161076	5999.457833	6.641370	0.002119	4.317869
160.215741	5999.424145	6.646374	0.002109	4.317862
160.219525	5999.439934	6.651379	0.002108	4.317867
160.190449	5999.435949	6.656384	0.002114	4.317864
160.177864	5999.462575	6.661389	0.002116	4.317872
160.221614	5999.378663	6.666394	0.002108	4.317847
160.270106	5999.444898	6.671398	0.002099	4.317873
160.330238	5999.434938	6.676403	0.002087	4.317874
160.301482	5999.437337	6.681408	0.002093	4.317872
160.252543	5999.433868	6.686413	0.002102	4.317868
160.365707	5999.409000	6.691418	0.002081	4.317867
160.186623	5999.451505	6.696422	0.002114	4.317869
160.213765	5999.455899	6.701427	0.002109	4.317872
160.228028	5999.406799	6.706432	0.002106	4.317857
160.140992	5999.461161	6.711437	0.002123	4.317869
160.278383	5999.412732	6.716442	0.002097	4.317862
160.373856	5999.404510	6.721446	0.002079	4.317867
160.156151	5999.432147	6.726451	0.002120	4.317860
160.134881	5999.465219	6.731456	0.002124	4.317870
160.099923	5999.470774	6.736461	0.002131	4.317869
160.182976	5999.450433	6.741466	0.002115	4.317868
160.274393	5999.427401	6.746470	0.002098	4.317867
160.241218	5999.431657	6.751475	0.002104	4.317866
160.279252	5999.417157	6.756480	0.002097	4.317864
160.152050	5999.439467	6.761485	0.002121	4.317862
160.301982	5999.378245	6.766490	0.002093	4.317852
160.379855	5999.389416	6.771494	0.002078	4.317862
160.417273	5999.457995	6.776499	0.002071	4.317888
160.270838	5999.429997	6.781504	0.002098	4.317868
160.233377	5999.409353	6.786509	0.002105	4.317858
160.379969	5999.414276	6.791514	0.002078	4.317870
160.321349	5999.462626	6.796518	0.002089	4.317882
160.478796	5999.440368	6.801523	0.002059	4.317886
160.410679	5999.389345	6.806528	0.002072	4.317864
160.399078	5999.462767	6.811533	0.002074	4.317888
160.305196	5999.415353	6.816538	0.002092	4.317865
160.284734	5999.439038	6.821542	0.002096	4.317872
160.327798	5999.434533	6.826547	0.002088	4.317873
160.517328	5999.395347	6.831552	0.002052	4.317874
160.337653	5999.492355	6.836557	0.002086	4.317894
160.359439	5999.423229	6.841562	0.002082	4.317872
160.287830	5999.412576	6.846566	0.002095	4.317863
160.373845	5999.412807	6.851571	0.002079	4.317869
160.179094	5999.449412	6.856576	0.002116	4.317868
160.391749	5999.485516	6.861581	0.002076	4.317895
160.479560	5999.390436	6.866586	0.002059	4.317869
160.455643	5999.469230	6.871590	0.002064	4.317894
160.356176	5999.418390	6.876595	0.002082	4.317870
160.501691	5999.414324	6.881600	0.002055	4.317879
160.403772	5999.444262	6.886605	0.002074	4.317882
160.441204	5999.472286	6.891610	0.002066	4.317894
160.343425	5999.408185	6.896614	0.002085	4.317866
160.263524	5999.443526	6.901619	0.002100	4.317872
160.318242	5999.416279	6.906624	0.002090	4.317867
160.269593	5999.464362	6.911629	0.002099	4.317879
160.393709	5999.418742	6.916634	0.002075	4.317873
160.336566	5999.498115	6.921638	0.002086	4.317896
160.420545	5999.396473	6.926643	0.002070	4.317867
160.384003	5999.494528	6.931648	0.002077	4.317898
160.373122	5999.412039	6.936653	0.002079	4.317869
160.400041	5999.402655	6.941658	0.002074	4.317868
160.433041	5999.464797	6.946662	0.002068	4.317891
160.453567	5999.399623	6.951667	0.002064	4.317871
160.474862	5999.463320	6.956672	0.002060	4.317894
160.453735	5999.462261	6.961677	0.002064	4.317892
160.457403	5999.384065	6.966682	0.002063	4.317866
160.474239	5999.475433	6.971686	0.002060	4.317898
160.333029	5999.423288	6.976691	0.002087	4.317870
160.391916	5999.467047	6.981696	0.002076	4.317889
160.464783	5999.415683	6.986701	0.002062	4.317877
160.513486	5999.455147	6.991706	0.002053	4.317894
160.413674	5999.414517	6.996710	0.002072	4.317873
160.503317	5999.450847	7.001715	0.002055	4.317891
160.282026	5999.423021	7.006720	0.002096	4.317866
160.504839	5999.415502	7.011725	0.002055	4.317880
160.402170	5999.456583	7.016730	0.002074	4.317886
160.542851	5999.448932	7.021734	0.002047	4.317894
160.264226	5999.465497	7.026739	0.002100	4.317879
160.422309	5999.416376	7.031744	0.002070	4.317874
160.385502	5999.429695	7.036749	0.002077	4.317876
160.333494	5999.427798	7.041754	0.002087	4.317872
160.383855	5999.424514	7.046758	0.002077	4.317874
160.314583	5999.430878	7.051763	0.002090	4.317871
160.300681	5999.426447	7.056768	0.002093	4.317869
160.440490	5999.471515	7.061773	0.002067	4.317894
160.351387	5999.400048	7.066778	0.002083	4.317863
160.399675	5999.460797	7.071782	0.002074	4.317887
160.415243	5999.407733	7.076787	0.002071	4.317871
160.335564	5999.509387	7.081792	0.002086	4.317899
160.396330	5999.424639	7.086797	0.002075	4.317875
160.453432	5999.395965	7.091802	0.002064	4.317869
160.507205	5999.447259	7.096806	0.002054	4.317891
160.388977	5999.461218	7.101811	0.002076	4.317887
160.437447	5999.383680	7.106816	0.002067	4.317864
160.402694	5999.480435	7.111821	0.002074	4.317894
160.376759	5999.414034	7.116826	0.002079	4.317870
160.420118	5999.471218	7.121830	0.002070	4.317892
160.392596	5999.419899	7.126835	0.002076	4.317873
160.459922	5999.432380	7.131840	0.002063	4.317882
160.438570	5999.434133	7.136845	0.002067	4.317881
160.462188	5999.434666	7.141850	0.002063	4.317883
160.391956	5999.476256	7.146854	0.002076	4.317892
160.492906	5999.388534	7.151859	0.002057	4.317870
160.568898	5999.446186	7.156864	0.002043	4.317895
160.536219	5999.439276	7.161869	0.002049	4.317890
160.539411	5999.428462	7.166874	0.002048	4.317886
160.551322	5999.464652	7.171878	0.002046	4.317900
160.477761	5999.421232	7.176883	0.002060	4.317880
160.385663	5999.403855	7.181888	0.002077	4.317867
160.519474	5999.436368	7.186893	0.002052	4.317888
160.462999	5999.450162	7.191898	0.002062	4.317888
160.495349	5999.408293	7.196902	0.002056	4.317876
160.447464	5999.451606	7.201907	0.002065	4.317888
160.448552	5999.452298	7.206912	0.002065	4.317888
160.509343	5999.373074	7.211917	0.002054	4.317866
160.586591	5999.476543	7.216922	0.002039	4.317906
160.478720	5999.401674	7.221926	0.002059	4.317873
160.363238	5999.469430	7.226931	0.002081	4.317888
160.486042	5999.437912	7.231936	0.002058	4.317886
160.475613	5999.421686	7.236941	0.002060	4.317880
160.556636	5999.417444	7.241946	0.002045	4.317884
160.569349	5999.458994	7.246950	0.002042	4.317899
160.465730	5999.444054	7.251955	0.002062	4.317886
160.470326	5999.391469	7.256960	0.002061	4.317869
160.470203	5999.465227	7.261965	0.002061	4.317894
160.473180	5999.411141	7.266970	0.002060	4.317876
160.448240	5999.467110	7.271974	0.002065	4.317893
160.562125	5999.439324	7.276979	0.002044	4.317892
160.506630	5999.444616	7.281984	0.002054	4.317890
160.483087	5999.433930	7.286989	0.002059	4.317884
160.315349	5999.404910	7.291994	0.002090	4.317862
160.398323	5999.471222	7.296998	0.002075	4.317891
160.500410	5999.424734	7.302003	0.002055	4.317882
160.581490	5999.438913	7.307008	0.002040	4.317893
160.569976	5999.402639	7.312013	0.002042	4.317880
160.412816	5999.454330	7.317018	0.002072	4.317886
160.466516	5999.430063	7.322022	0.002062	4.317882
160.314739	5999.429002	7.327027	0.002090	4.317871
160.539988	5999.377649	7.332032	0.002048	4.317869
160.524595	5999.468464	7.337037	0.002051	4.317899
160.402675	5999.426061	7.342042	0.002074	4.317876
160.448264	5999.490147	7.347046	0.002065	4.317901
160.428991	5999.390999	7.352051	0.002069	4.317866
160.405793	5999.488996	7.357056	0.002073	4.317897
160.602582	5999.417859	7.362061	0.002036	4.317887
160.485792	5999.405707	7.367066	0.002058	4.317875
160.556384	5999.443304	7.372070	0.002045	4.317893
160.497237	5999.442917	7.377075	0.002056	4.317888
160.559829	5999.435201	7.382080	0.002044	4.317890
160.500883	5999.443067	7.387085	0.002055	4.317889
160.567016	5999.429072	7.392090	0.002043	4.317889
160.565750	5999.447773	7.397094	0.002043	4.317895
160.580707	5999.411428	7.402099	0.002040	4.317884
160.391336	5999.433991	7.407104	0.002076	4.317878
160.521719	5999.434049	7.412109	0.002051	4.317887
160.524556	5999.449117	7.417114	0.002051	4.317892
160.610037	5999.407987	7.422118	0.002035	4.317885
160.578307	5999.427605	7.427123	0.002041	4.317889
160.505285	5999.439370	7.432128	0.002054	4.317888
160.577762	5999.404678	7.437133	0.002041	4.317881
160.448184	5999.445002	7.442138	0.002065	4.317886
160.428232	5999.463971	7.447142	0.002069	4.317891
160.622671	5999.450475	7.452147	0.002032	4.317900
160.599651	5999.410185	7.457152	0.002037	4.317885
160.492900	5999.430010	7.462157	0.002057	4.317884
160.582131	5999.428639	7.467162	0.002040	4.317890
160.603834	5999.407456	7.472166	0.002036	4.317884
160.518759	5999.419008	7.477171	0.002052	4.317882
160.634046	5999.414888	7.482176	0.002030	4.317889
160.515665	5999.453764	7.487181	0.002053	4.317893
160.447474	5999.460821	7.492186	0.002065	4.317891
160.519906	5999.448258	7.497190	0.002052	4.317892
160.591805	5999.401707	7.502195	0.002038	4.317881
160.546839	5999.431499	7.507200	0.002047	4.317888
160.615124	5999.429030	7.512205	0.002034	4.317892
160.511753	5999.415882	7.517210	0.002053	4.317880
160.508913	5999.433073	7.522214	0.002054	4.317886
160.563687	5999.425168	7.527219	0.002044	4.317887
160.590043	5999.478578	7.532224	0.002039	4.317907
160.476305	5999.374535	7.537229	0.002060	4.317864
160.622209	5999.482831	7.542234	0.002033	4.317911
160.544542	5999.438436	7.547238	0.002047	4.317890
160.611944	5999.405740	7.552243	0.002034	4.317884
160.693067	5999.389495	7.557248	0.002019	4.317884
160.641771	5999.471318	7.562253	0.002029	4.317908
160.492676	5999.444804	7.567258	0.002057	4.317889
160.552775	5999.402593	7.572262	0.002046	4.317879
160.587049	5999.442345	7.577267	0.002039	4.317895
160.550471	5999.427043	7.582272	0.002046	4.317887
160.599930	5999.405517	7.587277	0.002037	4.317883
160.565052	5999.424880	7.592282	0.002043	4.317887
160.697109	5999.424585	7.597286	0.002018	4.317896
160.658660	5999.465901	7.602291	0.002026	4.317908
160.676208	5999.396749	7.607296	0.002022	4.317886
160.677910	5999.448924	7.612301	0.002022	4.317903
160.641520	5999.440035	7.617306	0.002029	4.317898
160.604160	5999.423977	7.622310	0.002036	4.317890
160.613034	5999.432238	7.627315	0.002034	4.317893
160.664814	5999.414829	7.632320	0.002025	4.317891
160.685256	5999.423406	7.637325	0.002021	4.317895
160.652121	5999.485718	7.642330	0.002027	4.317914
160.687679	5999.429345	7.647334	0.002020	4.317897
160.713736	5999.393416	7.652339	0.002015	4.317887
160.863290	5999.478821	7.657344	0.001987	4.317927
160.844176	5999.382403	7.662349	0.001991	4.317893
160.675092	5999.484544	7.667354	0.002023	4.317915
160.615775	5999.401243	7.672358	0.002034	4.317883
160.667908	5999.409566	7.677363	0.002024	4.317889
160.698037	5999.457568	7.682368	0.002018	4.317908
160.718242	5999.407209	7.687373	0.002015	4.317892
160.694316	5999.462964	7.692378	0.002019	4.317909
160.719334	5999.399605	7.697382	0.002014	4.317890
160.749514	5999.460500	7.702387	0.002009	4.317912
160.711531	5999.409551	7.707392	0.002016	4.317892
160.761773	5999.459749	7.712397	0.002006	4.317913
160.730992	5999.403590	7.717402	0.002012	4.317892
160.808472	5999.451711	7.722406	0.001998	4.317914
160.799127	5999.448158	7.727411	0.001999	4.317912
160.717524	5999.379711	7.732416	0.002015	4.317883
160.767600	5999.459438	7.737421	0.002005	4.317913
160.602814	5999.416889	7.742426	0.002036	4.317887
160.647136	5999.431473	7.747430	0.002028	4.317895
160.595487	5999.487564	7.752435	0.002038	4.317911
160.786928	5999.399126	7.757440	0.002002	4.317894
160.700241	5999.408254	7.762445	0.002018	4.317891
160.770450	5999.467130	7.767450	0.002005	4.317916
160.705983	5999.395978	7.772454	0.002017	4.317887
160.714345	5999.431997	7.777459	0.002015	4.317900
160.707200	5999.468533	7.782464	0.002017	4.317912
160.656156	5999.415739	7.787469	0.002026	4.317891
160.749476	5999.420877	7.792474	0.002009	4.317899
160.616564	5999.468357	7.797478	0.002034	4.317906
160.643872	5999.403592	7.802483	0.002028	4.317886
160.621096	5999.385370	7.807488	0.002033	4.317878
160.739274	5999.458981	7.812493	0.002011	4.317911
160.694586	5999.415902	7.817498	0.002019	4.317893
160.774269	5999.466322	7.822502	0.002004	4.317916
160.751211	5999.411293	7.827507	0.002008	4.317896
160.662549	5999.476138	7.832512	0.002025	4.317911
160.802622	5999.380137	7.837517	0.001999	4.317889
160.748676	5999.453304	7.842522	0.002009	4.317910
160.672842	5999.436172	7.847526	0.002023	4.317899
160.609418	5999.419178	7.852531	0.002035	4.317888
160.705810	5999.431038	7.857536	0.002017	4.317899
160.731211	5999.464373	7.862541	0.002012	4.317912
160.678041	5999.401891	7.867546	0.002022	4.317887
160.672149	5999.487932	7.872550	0.002023	4.317916
160.745840	5999.405978	7.877555	0.002009	4.317894
160.753606	5999.413551	7.882560	0.002008	4.317897
160.790684	5999.446258	7.887565	0.002001	4.317911
160.687872	5999.396124	7.892570	0.002020	4.317886
160.858949	5999.451168	7.897574	0.001988	4.317917
160.848084	5999.445172	7.902579	0.001990	4.317914
160.812998	5999.427711	7.907584	0.001997	4.317906
160.806719	5999.403233	7.912589	0.001998	4.317897
160.795126	5999.478499	7.917594	0.002000	4.317922
160.781844	5999.441677	7.922598	0.002003	4.317908
160.814726	5999.393244	7.927603	0.001996	4.317894
160.746745	5999.456478	7.932608	0.002009	4.317911
160.858213	5999.403397	7.937613	0.001988	4.317901
160.857844	5999.441263	7.942618	0.001988	4.317914
160.823938	5999.394059	7.947622	0.001995	4.317895
160.748427	5999.471790	7.952627	0.002009	4.317916
160.756833	5999.418398	7.957632	0.002007	4.317899
160.782474	5999.459056	7.962637	0.002002	4.317914
160.881311	5999.391135	7.967642	0.001984	4.317898
160.762840	5999.453994	7.972646	0.002006	4.317911
160.832802	5999.476056	7.977651	0.001993	4.317924
160.853177	5999.373125	7.982656	0.001989	4.317890
160.864698	5999.468385	7.987661	0.001987	4.317923
160.748273	5999.460763	7.992666	0.002009	4.317912
160.900988	5999.386050	7.997670	0.001980	4.317898
160.783591	5999.465271	8.002675	0.002002	4.317916
160.922039	5999.396342	8.007680	0.001976	4.317903
160.802379	5999.461295	8.012685	0.001999	4.317916
160.967535	5999.410678	8.017690	0.001968	4.317911
160.847201	5999.434299	8.022694	0.001990	4.317911
160.894411	5999.464862	8.027699	0.001981	4.317924
160.932098	5999.387762	8.032704	0.001974	4.317901
160.819986	5999.473238	8.037709	0.001995	4.317922
160.804354	5999.388065	8.042714	0.001998	4.317892
160.742877	5999.476652	8.047718	0.002010	4.317917
160.789926	5999.419690	8.052723	0.002001	4.317901
160.871767	5999.457672	8.057728	0.001986	4.317920
160.772993	5999.389172	8.062733	0.002004	4.317890
160.755716	5999.484073	8.067738	0.002007	4.317921
160.796689	5999.372175	8.072742	0.002000	4.317886
160.883765	5999.480019	8.077747	0.001983	4.317929
160.842885	5999.437055	8.082752	0.001991	4.317911
160.909469	5999.401767	8.087757	0.001979	4.317904
160.799385	5999.457321	8.092762	0.001999	4.317915
160.722609	5999.402598	8.097766	0.002014	4.317891
160.785956	5999.403940	8.102771	0.002002	4.317896
160.791787	5999.486578	8.107776	0.002001	4.317924
160.717894	5999.395301	8.112781	0.002015	4.317888
160.743681	5999.421181	8.117786	0.002010	4.317899
160.693174	5999.476109	8.122790	0.002019	4.317914
160.767867	5999.409611	8.127795	0.002005	4.317896
160.738998	5999.406504	8.132800	0.002011	4.317893
160.830819	5999.469102	8.137805	0.001993	4.317921
160.740793	5999.415340	8.142810	0.002010	4.317896
160.814280	5999.420988	8.147814	0.001996	4.317904
160.924870	5999.447357	8.152819	0.001976	4.317921
160.877889	5999.408450	8.157824	0.001985	4.317904
160.903437	5999.446362	8.162829	0.001980	4.317919
160.945527	5999.455889	8.167834	0.001972	4.317925
160.954610	5999.433690	8.172838	0.001970	4.317918
160.826502	5999.418402	8.177843	0.001994	4.317904
160.831371	5999.430275	8.182848	0.001993	4.317908
160.871929	5999.423536	8.187853	0.001986	4.317909
160.840999	5999.435611	8.192858	0.001991	4.317911
160.885897	5999.403068	8.197862	0.001983	4.317903
160.850806	5999.451048	8.202867	0.001990	4.317916
160.951089	5999.407707	8.207872	0.001971	4.317909
160.909306	5999.448807	8.212877	0.001979	4.317920
160.915301	5999.405141	8.217882	0.001978	4.317906
160.913302	5999.447040	8.222886	0.001978	4.317920
160.880693	5999.421681	8.227891	0.001984	4.317909
160.882194	5999.468369	8.232896	0.001984	4.317925
160.787501	5999.402692	8.237901	0.002002	4.317896
160.836756	5999.422684	8.242906	0.001992	4.317906
160.751431	5999.441661	8.247910	0.002008	4.317906
160.789594	5999.393032	8.252915	0.002001	4.317892
160.886651	5999.423186	8.257920	0.001983	4.317910
160.835821	5999.458827	8.262925	0.001992	4.317918
160.765886	5999.413717	8.267930	0.002006	4.317898
160.696464	5999.484630	8.272934	0.002019	4.317917
160.983081	5999.383425	8.277939	0.001965	4.317903
160.855058	5999.447383	8.282944	0.001989	4.317916
160.822325	5999.419286	8.287949	0.001995	4.317904
160.794529	5999.467565	8.292954	0.002000	4.317918
160.881599	5999.404900	8.297958	0.001984	4.317903
160.815851	5999.462131	8.302963	0.001996	4.317918
160.851590	5999.413093	8.307968	0.001989	4.317904
160.914718	5999.450427	8.312973	0.001978	4.317921
160.870440	5999.404496	8.317978	0.001986	4.317902
160.889798	5999.446483	8.322982	0.001982	4.317918
160.962667	5999.390510	8.327987	0.001969	4.317904
160.811079	5999.453002	8.332992	0.001997	4.317914
160.875956	5999.406094	8.337997	0.001985	4.317903
160.831636	5999.419159	8.343002	0.001993	4.317904
160.993711	5999.420808	8.348006	0.001963	4.317916
160.834978	5999.449789	8.353011	0.001993	4.317915
160.627582	5999.452201	8.358016	0.002032	4.317901
160.795187	5999.382632	8.363021	0.002000	4.317889
160.907795	5999.475855	8.368026	0.001979	4.317929
160.870263	5999.412828	8.373030	0.001986	4.317905
160.988566	5999.398854	8.378035	0.001964	4.317909
160.769902	5999.456186	8.383040	0.002005	4.317912
160.934278	5999.398361	8.388045	0.001974	4.317905
160.970101	5999.446081	8.393050	0.001967	4.317923
160.975690	5999.443976	8.398054	0.001966	4.317923
161.063485	5999.405121	8.403059	0.001950	4.317916
160.911826	5999.476846	8.408064	0.001978	4.317930
160.819815	5999.388480	8.413069	0.001995	4.317893
160.963255	5999.450294	8.418074	0.001969	4.317924
160.928853	5999.429002	8.423078	0.001975	4.317915
160.920599	5999.465773	8.428083	0.001977	4.317926
160.905726	5999.428366	8.433088	0.001979	4.317913
161.034291	5999.384570	8.438093	0.001955	4.317907
160.937119	5999.446608	8.443098	0.001973	4.317921
161.124964	5999.411467	8.448102	0.001938	4.317923
161.088854	5999.484548	8.453107	0.001945	4.317945
161.055280	5999.415153	8.458112	0.001951	4.317919
160.899692	5999.413053	8.463117	0.001980	4.317907
161.031703	5999.420142	8.468122	0.001956	4.317919
161.004301	5999.437922	8.473126	0.001961	4.317923
161.136887	5999.443047	8.478131	0.001936	4.317934
161.063321	5999.426355	8.483136	0.001950	4.317923
161.245379	5999.436679	8.488141	0.001916	4.317940
161.136487	5999.482764	8.493146	0.001936	4.317948
161.173911	5999.410326	8.498150	0.001929	4.317926
161.009549	5999.458010	8.503155	0.001960	4.317930
161.020360	5999.389361	8.508160	0.001958	4.317908
161.028794	5999.417992	8.513165	0.001956	4.317918
161.050957	5999.457543	8.518170	0.001952	4.317933
161.007547	5999.404055	8.523174	0.001960	4.317912
160.925730	5999.465608	8.528179	0.001976	4.317927
160.994995	5999.422379	8.533184	0.001963	4.317917
161.011271	5999.438290	8.538189	0.001960	4.317924
160.914039	5999.433059	8.543194	0.001978	4.317915
161.011333	5999.383898	8.548198	0.001960	4.317905
161.028943	5999.426256	8.553203	0.001956	4.317921
160.997064	5999.447749	8.558208	0.001962	4.317926
160.971788	5999.423603	8.563213	0.001967	4.317916
161.022917	5999.458868	8.568218	0.001957	4.317931
160.950226	5999.430931	8.573223	0.001971	4.317917
160.938262	5999.395674	8.578227	0.001973	4.317904
160.847813	5999.428639	8.583232	0.001990	4.317909
160.935168	5999.447943	8.588237	0.001974	4.317921
160.946396	5999.425290	8.593242	0.001972	4.317915
161.137718	5999.426280	8.598247	0.001936	4.317929
160.970550	5999.435847	8.603251	0.001967	4.317920
160.997075	5999.439451	8.608256	0.001962	4.317923
160.990390	5999.427962	8.613261	0.001963	4.317919
160.974181	5999.449826	8.618266	0.001966	4.317925
161.000164	5999.421286	8.623271	0.001962	4.317917
161.101743	5999.434815	8.628275	0.001943	4.317929
161.022554	5999.418391	8.633280	0.001957	4.317918
161.055877	5999.439912	8.638285	0.001951	4.317927
160.884139	5999.418187	8.643290	0.001983	4.317908
161.086319	5999.423331	8.648295	0.001945	4.317924
161.057068	5999.401871	8.653299	0.001951	4.317915
161.128213	5999.416310	8.658304	0.001938	4.317925
161.190302	5999.479671	8.663309	0.001926	4.317950
161.101417	5999.423823	8.668314	0.001943	4.317925
161.019633	5999.403340	8.673319	0.001958	4.317912
161.077236	5999.445530	8.678323	0.001947	4.317931
161.117600	5999.403809	8.683328	0.001940	4.317920
161.200083	5999.425987	8.688333	0.001924	4.317933
161.000574	5999.445162	8.693338	0.001962	4.317925
161.138318	5999.425232	8.698343	0.001936	4.317928
161.112188	5999.486062	8.703347	0.001941	4.317947
161.158741	5999.410771	8.708352	0.001932	4.317925
161.211885	5999.392152	8.713357	0.001922	4.317922
161.217195	5999.443565	8.718362	0.001921	4.317940
161.152697	5999.433249	8.723367	0.001933	4.317932
161.071343	5999.446778	8.728371	0.001948	4.317931
161.012183	5999.427037	8.733376	0.001959	4.317920
161.222146	5999.449891	8.738381	0.001920	4.317943
161.163327	5999.452199	8.743386	0.001931	4.317939
161.288957	5999.419163	8.748391	0.001907	4.317937
161.093032	5999.404399	8.753395	0.001944	4.317918
161.127948	5999.415444	8.758400	0.001938	4.317924
161.046999	5999.420592	8.763405	0.001953	4.317920
161.291917	5999.456326	8.768410	0.001907	4.317950
161.245576	5999.455072	8.773415	0.001916	4.317946
161.240509	5999.428493	8.778419	0.001917	4.317937
161.079259	5999.405470	8.783424	0.001947	4.317917
161.169264	5999.420527	8.788429	0.001930	4.317929
161.239759	5999.430495	8.793434	0.001917	4.317937
161.196682	5999.442376	8.798439	0.001925	4.317938
161.136072	5999.425707	8.803443	0.001936	4.317928
161.393602	5999.380429	8.808448	0.001888	4.317931
161.096734	5999.465368	8.813453	0.001943	4.317939
161.275315	5999.426658	8.818458	0.001910	4.317939
161.235601	5999.434140	8.823463	0.001917	4.317938
161.277081	5999.423519	8.828467	0.001910	4.317938
161.278821	5999.377988	8.833472	0.001909	4.317922
161.274190	5999.429661	8.838477	0.001910	4.317940
161.184119	5999.476371	8.843482	0.001927	4.317949
161.286356	5999.410496	8.848487	0.001908	4.317934
161.119561	5999.400629	8.853491	0.001939	4.317919
161.157229	5999.434134	8.858496	0.001932	4.317933
161.134512	5999.489634	8.863501	0.001936	4.317950
161.235062	5999.406603	8.868506	0.001918	4.317929
161.107256	5999.404154	8.873511	0.001942	4.317919
161.180531	5999.419986	8.878515	0.001928	4.317930
161.216300	5999.469562	8.883520	0.001921	4.317949
161.384024	5999.411028	8.888525	0.001890	4.317941
161.254214	5999.395177	8.893530	0.001914	4.317926
161.228759	5999.432823	8.898535	0.001919	4.317937
161.170545	5999.491226	8.903539	0.001930	4.317953
161.260084	5999.404074	8.908544	0.001913	4.317930
161.310238	5999.390696	8.913549	0.001903	4.317929
161.279653	5999.488415	8.918554	0.001909	4.317960
161.197121	5999.399885	8.923559	0.001925	4.317924
161.340936	5999.394339	8.928563	0.001898	4.317932
161.236698	5999.467089	8.933568	0.001917	4.317950
161.218938	5999.410937	8.938573	0.001921	4.317929
161.125694	5999.394722	8.943578	0.001938	4.317917
161.214769	5999.489241	8.948583	0.001921	4.317955
161.200817	5999.401868	8.953587	0.001924	4.317925
161.267575	5999.411706	8.958592	0.001911	4.317933
161.216257	5999.452980	8.963597	0.001921	4.317943
161.305541	5999.425792	8.968602	0.001904	4.317940
161.268876	5999.407743	8.973607	0.001911	4.317932
161.274575	5999.465526	8.978611	0.001910	4.317952
161.266173	5999.380665	8.983616	0.001912	4.317922
161.375126	5999.458074	8.988621	0.001891	4.317956
161.256955	5999.418561	8.993626	0.001913	4.317935
161.220484	5999.421670	8.998631	0.001920	4.317933
161.161086	5999.429631	9.003635	0.001931	4.317931
161.235683	5999.453478	9.008640	0.001917	4.317945
161.228536	5999.421810	9.013645	0.001919	4.317934
161.374348	5999.402015	9.018650	0.001891	4.317937
161.185211	5999.489044	9.023655	0.001927	4.317953
161.254171	5999.415463	9.028659	0.001914	4.317933
161.216319	5999.391214	9.033664	0.001921	4.317922
161.409194	5999.414919	9.038669	0.001885	4.317944
161.363122	5999.462458	9.043674	0.001893	4.317957
161.308880	5999.400200	9.048679	0.001904	4.317932
161.137914	5999.416100	9.053683	0.001936	4.317925
161.252343	5999.485899	9.058688	0.001914	4.317957
161.072355	5999.396793	9.063693	0.001948	4.317914
161.224943	5999.411510	9.068698	0.001919	4.317930
161.148396	5999.476557	9.073703	0.001934	4.317946
161.289371	5999.398798	9.078707	0.001907	4.317930
161.279692	5999.456148	9.083712	0.001909	4.317949
161.106666	5999.425478	9.088717	0.001942	4.317926
161.281284	5999.424473	9.093722	0.001909	4.317938
161.314193	5999.412901	9.098727	0.001903	4.317937
161.354029	5999.453321	9.103731	0.001895	4.317953
161.385536	5999.419925	9.108736	0.001889	4.317944
161.310218	5999.383326	9.113741	0.001903	4.317926
161.378535	5999.418642	9.118746	0.001891	4.317943
161.249539	5999.470823	9.123751	0.001915	4.317952
161.404348	5999.392902	9.128755	0.001886	4.317936
161.263619	5999.399639	9.133760	0.001912	4.317929
161.241537	5999.422745	9.138765	0.001916	4.317935
161.130495	5999.489562	9.143770	0.001937	4.317950
161.273340	5999.418781	9.148775	0.001910	4.317936
161.222085	5999.389994	9.153779	0.001920	4.317922
161.279402	5999.412890	9.158784	0.001909	4.317934
161.225013	5999.483387	9.163789	0.001919	4.317954
161.216651	5999.415108	9.168794	0.001921	4.317931
161.084429	5999.390551	9.173799	0.001946	4.317913
161.251171	5999.418863	9.178803	0.001915	4.317934
161.145797	5999.480794	9.183808	0.001934	4.317948
161.361307	5999.412148	9.188813	0.001894	4.317940
161.286162	5999.380122	9.193818	0.001908	4.317924
161.366420	5999.475585	9.198823	0.001893	4.317962
161.231455	5999.403680	9.203827	0.001918	4.317928
161.301182	5999.397220	9.208832	0.001905	4.317931
161.102351	5999.474318	9.213837	0.001942	4.317942
161.357935	5999.399037	9.218842	0.001894	4.317935
161.129941	5999.404884	9.223847	0.001937	4.317921
161.351548	5999.486106	9.228851	0.001896	4.317964
161.177708	5999.384637	9.233856	0.001928	4.317917
161.239267	5999.418617	9.238861	0.001917	4.317933
161.166732	5999.487424	9.243866	0.001930	4.317951
161.350443	5999.390483	9.248871	0.001896	4.317932
161.369284	5999.391105	9.253875	0.001892	4.317933
161.458557	5999.473601	9.258880	0.001876	4.317968
161.314639	5999.375017	9.263885	0.001903	4.317924
161.414044	5999.458134	9.268890	0.001884	4.317959
161.377081	5999.406967	9.273895	0.001891	4.317939
161.366519	5999.407359	9.278899	0.001893	4.317939
161.327468	5999.461707	9.283904	0.001900	4.317954
161.399669	5999.385597	9.288909	0.001887	4.317934
161.287809	5999.457195	9.293914	0.001908	4.317950
161.328383	5999.416350	9.298919	0.001900	4.317939
161.332671	5999.439407	9.303923	0.001899	4.317947
161.338766	5999.420605	9.308928	0.001898	4.317941
161.404331	5999.420557	9.313933	0.001886	4.317946
161.407383	5999.415302	9.318938	0.001885	4.317944
161.270738	5999.440530	9.323943	0.001911	4.317943
161.384546	5999.407231	9.328947	0.001889	4.317940
161.338574	5999.445531	9.333952	0.001898	4.317950
161.463362	5999.400692	9.338957	0.001875	4.317943
161.410576	5999.460712	9.343962	0.001885	4.317960
161.326562	5999.397380	9.348967	0.001900	4.317932
161.279964	5999.422909	9.353971	0.001909	4.317938
161.355052	5999.429141	9.358976	0.001895	4.317945
161.299498	5999.415089	9.363981	0.001905	4.317936
161.354665	5999.429223	9.368986	0.001895	4.317945
161.217626	5999.413058	9.373991	0.001921	4.317930
161.314121	5999.464531	9.378995	0.001903	4.317954
161.295090	5999.364407	9.384000	0.001906	4.317919
161.375948	5999.490160	9.389005	0.001891	4.317967
161.321264	5999.388363	9.394010	0.001901	4.317929
161.295518	5999.431600	9.399015	0.001906	4.317942
161.335569	5999.424968	9.404019	0.001899	4.317942
161.510328	5999.462646	9.409024	0.001866	4.317968
161.322619	5999.383467	9.414029	0.001901	4.317927
161.438667	5999.435412	9.419034	0.001879	4.317953
161.364852	5999.429832	9.424039	0.001893	4.317946
161.344245	5999.408385	9.429043	0.001897	4.317937
161.208962	5999.415813	9.434048	0.001922	4.317930
161.340506	5999.439593	9.439053	0.001898	4.317948
161.318532	5999.448851	9.444058	0.001902	4.317949
161.473408	5999.384741	9.449063	0.001873	4.317939
161.199370	5999.500795	9.454067	0.001924	4.317958
161.354106	5999.402612	9.459072	0.001895	4.317936
161.214973	5999.396107	9.464077	0.001921	4.317924
161.359395	5999.432830	9.469082	0.001894	4.317947
161.290382	5999.442825	9.474087	0.001907	4.317945
161.381559	5999.399568	9.479091	0.001890	4.317937
161.234469	5999.469404	9.484096	0.001918	4.317950
161.300837	5999.392685	9.489101	0.001905	4.317929
161.196032	5999.469242	9.494106	0.001925	4.317947
161.237587	5999.411599	9.499111	0.001917	4.317931
161.218014	5999.399151	9.504115	0.001921	4.317925
161.437412	5999.453190	9.509120	0.001880	4.317959
161.285758	5999.437352	9.514125	0.001908	4.317943
161.289173	5999.410822	9.519130	0.001907	4.317934
161.165844	5999.397287	9.524135	0.001931	4.317921
161.418218	5999.461860	9.529139	0.001883	4.317961
161.460908	5999.388307	9.534144	0.001875	4.317939
161.509175	5999.464734	9.539149	0.001866	4.317968
161.364920	5999.385577	9.544154	0.001893	4.317931
161.405791	5999.459881	9.549159	0.001885	4.317959
161.432595	5999.373100	9.554163	0.001880	4.317932
161.582751	5999.450087	9.559168	0.001852	4.317969
161.334215	5999.424333	9.564173	0.001899	4.317942
161.450758	5999.423636	9.569178	0.001877	4.317950
161.285853	5999.446549	9.574183	0.001908	4.317946
161.326158	5999.410369	9.579187	0.001900	4.317937
161.459662	5999.448481	9.584192	0.001875	4.317959
161.320836	5999.377393	9.589197	0.001901	4.317925
161.303520	5999.460323	9.594202	0.001905	4.317952
161.399488	5999.387479	9.599207	0.001887	4.317934
161.344769	5999.457124	9.604211	0.001897	4.317954
161.438220	5999.375596	9.609216	0.001879	4.317933
161.422241	5999.464695	9.614221	0.001882	4.317962
161.569466	5999.358884	9.619226	0.001855	4.317937
161.225900	5999.498868	9.624231	0.001919	4.317960
161.377376	5999.400453	9.629235	0.001891	4.317937
161.367133	5999.420133	9.634240	0.001893	4.317943
161.524219	5999.409935	9.639245	0.001863	4.317951
161.354664	5999.459639	9.644250	0.001895	4.317955
161.467151	5999.390673	9.649255	0.001874	4.317940
161.323124	5999.375065	9.654259	0.001901	4.317925
161.496587	5999.473849	9.659264	0.001868	4.317970
161.420348	5999.379378	9.664269	0.001883	4.317933
161.498700	5999.470637	9.669274	0.001868	4.317970
161.410977	5999.373987	9.674279	0.001885	4.317931
161.370735	5999.468220	9.679283	0.001892	4.317960
161.354659	5999.364706	9.684288	0.001895	4.317923
161.306781	5999.493735	9.689293	0.001904	4.317964
161.373691	5999.378191	9.694298	0.001892	4.317929
161.483739	5999.406519	9.699303	0.001871	4.317947
161.473596	5999.441846	9.704307	0.001873	4.317958
161.476267	5999.436672	9.709312	0.001872	4.317956
161.418891	5999.392590	9.714317	0.001883	4.317937
161.456834	5999.485948	9.719322	0.001876	4.317972
161.451025	5999.354453	9.724327	0.001877	4.317927
161.432583	5999.480019	9.729331	0.001880	4.317968
161.470317	5999.392768	9.734336	0.001873	4.317941
161.605061	5999.414950	9.739341	0.001848	4.317958
161.380897	5999.458697	9.744346	0.001890	4.317957
161.416490	5999.384803	9.749351	0.001883	4.317935
161.476088	5999.442241	9.754355	0.001872	4.317958
161.616994	5999.372792	9.759360	0.001846	4.317945
161.464340	5999.466847	9.764365	0.001874	4.317966
161.411700	5999.392268	9.769370	0.001884	4.317937
161.434188	5999.453872	9.774375	0.001880	4.317959
161.591211	5999.441845	9.779379	0.001851	4.317966
161.485351	5999.376683	9.784384	0.001871	4.317937
161.535262	5999.463822	9.789389	0.001861	4.317970
161.437189	5999.393327	9.794394	0.001880	4.317939
161.553014	5999.412137	9.799399	0.001858	4.317954
161.539562	5999.440792	9.804403	0.001860	4.317962
161.602710	5999.432960	9.809408	0.001849	4.317964
161.510652	5999.397137	9.814413	0.001866	4.317945
161.474803	5999.472929	9.819418	0.001873	4.317969
161.476223	5999.354651	9.824423	0.001872	4.317929
161.399270	5999.487990	9.829427	0.001887	4.317968
161.404411	5999.404871	9.834432	0.001886	4.317940
161.502061	5999.418311	9.839437	0.001867	4.317952
161.431839	5999.453447	9.844442	0.001881	4.317959
161.391152	5999.387399	9.849447	0.001888	4.317934
161.381730	5999.454833	9.854451	0.001890	4.317956
161.567254	5999.373178	9.859456	0.001855	4.317941
161.476039	5999.439486	9.864461	0.001872	4.317957
161.576026	5999.438606	9.869466	0.001854	4.317964
161.638281	5999.435572	9.874471	0.001842	4.317968
161.686515	5999.435504	9.879475	0.001833	4.317971
161.532685	5999.407222	9.884480	0.001862	4.317950
161.573852	5999.367173	9.889485	0.001854	4.317940
161.517621	5999.438061	9.894490	0.001865	4.317960
161.559005	5999.468015	9.899495	0.001857	4.317973
161.539962	5999.381718	9.904499	0.001860	4.317942
161.695068	5999.411573	9.909504	0.001831	4.317964
161.520055	5999.457823	9.914509	0.001864	4.317967
161.706076	5999.410166	9.919514	0.001829	4.317964
161.659876	5999.390447	9.924519	0.001838	4.317954
161.642829	5999.446591	9.929523	0.001841	4.317972
161.672336	5999.431131	9.934528	0.001835	4.317969
161.790287	5999.430137	9.939533	0.001813	4.317977
161.536398	5999.373255	9.944538	0.001861	4.317939
161.508346	5999.463066	9.949543	0.001866	4.317968
161.447008	5999.411526	9.954547	0.001878	4.317946
161.606791	5999.410897	9.959552	0.001848	4.317957
161.522350	5999.461946	9.964557	0.001864	4.317968
161.602290	5999.351939	9.969562	0.001849	4.317937
161.534180	5999.446539	9.974567	0.001861	4.317964
161.587302	5999.468480	9.979571	0.001851	4.317975
161.518785	5999.380669	9.984576	0.001864	4.317940
161.660934	5999.408657	9.989581	0.001838	4.317960
161.655158	5999.443983	9.994586	0.001839	4.317972
161.719556	5999.432199	9.999591	0.001827	4.317972
161.552068	5999.375470	10.004595	0.001858	4.317941
161.522815	5997.493241	10.009600	0.001864	4.317301
161.434933	5991.625365	10.014605	0.001882	4.315307
161.537444	5985.553235	10.019610	0.001864	4.313256
161.362329	5979.610021	10.024615	0.001899	4.311227
161.383841	5973.563550	10.029619	0.001896	4.309177
161.320791	5967.538833	10.034624	0.001909	4.307127
161.455484	5961.599030	10.039629	0.001886	4.305119
161.267378	5955.534057	10.044634	0.001922	4.303045
161.396988	5949.599992	10.049639	0.001899	4.301037
161.188035	5943.528809	10.054643	0.001940	4.298957
161.185025	5937.553401	10.059648	0.001942	4.296923
161.059058	5931.543806	10.064653	0.001967	4.294868
161.091562	5925.530790	10.069658	0.001963	4.292822
161.080494	5919.529939	10.074663	0.001966	4.290776
161.184184	5913.510160	10.079667	0.001948	4.288731
161.019050	5907.514143	10.084672	0.001981	4.286674
160.964965	5901.532044	10.089677	0.001992	4.284628
160.862530	5895.474518	10.094682	0.002013	4.282552
160.926055	5889.530565	10.099687	0.002003	4.280526
160.813767	5883.450883	10.104691	0.002025	4.278440
160.698353	5877.499026	10.109696	0.002048	4.276397
160.678256	5871.470270	10.114701	0.002054	4.274333
160.592056	5865.447713	10.119706	0.002071	4.272265
160.575560	5859.475083	10.124711	0.002076	4.270218
160.668521	5853.451677	10.129715	0.002060	4.268162
160.591172	5847.471499	10.134720	0.002076	4.266106
160.648974	5841.463255	10.139725	0.002067	4.264050
160.454436	5835.424130	10.144730	0.002105	4.261964
160.489298	5829.453953	10.149735	0.002100	4.259917
160.427123	5823.438544	10.154739	0.002113	4.257846
160.299341	5817.452094	10.159744	0.002138	4.255780
160.210640	5811.405667	10.164749	0.002156	4.253695
160.160669	5805.458212	10.169754	0.002167	4.251645
160.053920	5799.387180	10.174759	0.002189	4.249548
160.195785	5793.384000	10.179763	0.002164	4.247492
160.012424	5787.419869	10.184768	0.002199	4.245424
160.011477	5781.398244	10.189773	0.002201	4.243349
159.978767	5775.357505	10.194778	0.002209	4.241264
160.118649	5769.374478	10.199783	0.002184	4.239210
160.064017	5763.358883	10.204787	0.002196	4.237130
160.024027	5757.380137	10.209792	0.002205	4.235063
159.815684	5751.370578	10.214797	0.002245	4.232971
159.877561	5745.370111	10.219802	0.002235	4.230902
159.764382	5739.320535	10.224807	0.002258	4.228801
159.683055	5733.358170	10.229811	0.002275	4.226732
159.736878	5727.324105	10.234816	0.002266	4.224648
159.668045	5721.323456	10.239821	0.002280	4.222565
159.678236	5715.310286	10.244826	0.002280	4.220482
159.473513	5709.335496	10.249831	0.002320	4.218395
159.503228	5703.320412	10.254835	0.002316	4.216311
159.539403	5697.300575	10.259840	0.002310	4.214225
159.558354	5691.303672	10.264845	0.002308	4.212145
159.451689	5685.322069	10.269850	0.002330	4.210059
159.402846	5679.270578	10.274855	0.002341	4.207952
159.338885	5673.315237	10.279859	0.002354	4.205877
159.286518	5667.249948	10.284864	0.002365	4.203763
159.321771	5661.288582	10.289869	0.002360	4.201691
159.158475	5655.254742	10.294874	0.002392	4.199577
159.222176	5649.231220	10.299879	0.002382	4.197483
159.235243	5643.272908	10.304883	0.002381	4.195408
159.191390	5637.263897	10.309888	0.002391	4.193309
158.987125	5631.247791	10.314893	0.002430	4.191194
159.058553	5625.227400	10.319898	0.002419	4.189098
158.954678	5619.268505	10.324903	0.002440	4.187008
158.995425	5613.226963	10.329907	0.002433	4.184900
158.927184	5607.212636	10.334912	0.002448	4.182792
159.015913	5601.224509	10.339917	0.002433	4.180705
158.872035	5595.184902	10.344922	0.002461	4.178580
158.839107	5589.225374	10.349927	0.002469	4.176491
158.742333	5583.197521	10.354931	0.002488	4.174371
158.774056	5577.210049	10.359936	0.002484	4.172275
158.559079	5571.174642	10.364941	0.002526	4.170142
158.695287	5565.175287	10.369946	0.002502	4.168048
158.623820	5559.165670	10.374951	0.002516	4.165933
158.689680	5553.183563	10.379955	0.002506	4.163837
158.580119	5547.154825	10.384960	0.002528	4.161710
158.470923	5541.153106	10.389965	0.002550	4.159591
158.460816	5535.123440	10.394970	0.002553	4.157470
158.450157	5529.162610	10.399975	0.002557	4.155371
158.327553	5523.119085	10.404979	0.002581	4.153233
158.296124	5517.131810	10.409984	0.002588	4.151122
158.251354	5511.108970	10.414989	0.002598	4.148995
158.250011	5505.131703	10.419994	0.002600	4.146887
158.356107	5499.098826	10.424999	0.002582	4.144767
158.214586	5493.112312	10.430003	0.002610	4.142643
158.095213	5487.121294	10.435008	0.002634	4.140517
158.062012	5481.100745	10.440013	0.002641	4.138387
157.977909	5475.097433	10.445018	0.002659	4.136258
157.999833	5469.068921	10.450023	0.002656	4.134127
157.881560	5463.089266	10.455027	0.002680	4.132001
157.877157	5457.086136	10.460032	0.002682	4.129875
157.958211	5451.045639	10.465037	0.002668	4.127742
157.843824	5445.099110	10.470042	0.002691	4.125624
157.814628	5439.050151	10.475047	0.002698	4.123477
157.654771	5433.057706	10.480051	0.002730	4.121338
157.596914	5427.027736	10.485056	0.002742	4.119192
157.645692	5421.061099	10.490061	0.002734	4.117077
157.506456	5415.010209	10.495066	0.002762	4.114915
157.507626	5409.029854	10.500071	0.002763	4.112789
157.416496	5403.027075	10.505075	0.002782	4.110646
157.359631	5397.021427	10.510080	0.002794	4.108503
157.332366	5391.018333	10.515085	0.002800	4.106363
157.358220	5385.001025	10.520090	0.002797	4.104221
157.409714	5379.003766	10.525095	0.002789	4.102087
157.300082	5372.999985	10.530099	0.002811	4.099937
157.263603	5366.971333	10.535104	0.002819	4.097782
157.310704	5360.997580	10.540109	0.002812	4.095653
157.263023	5354.941994	10.545114	0.002822	4.093486
157.233563	5348.992871	10.550119	0.002829	4.091357
157.126933	5342.944958	10.555123	0.002851	4.089185
157.073118	5336.992007	10.560128	0.002862	4.087051
156.953157	5330.934427	10.565133	0.002886	4.084872
156.821313	5324.945594	10.570138	0.002913	4.082716
156.799287	5318.915617	10.575143	0.002918	4.080553
156.772295	5312.928286	10.580147	0.002925	4.078404
156.765821	5306.935928	10.585152	0.002928	4.076254
156.747966	5300.944137	10.590157	0.002932	4.074101
156.628269	5294.923343	10.595162	0.002956	4.071929
156.658217	5288.901748	10.600167	0.002952	4.069768
156.708704	5282.906384	10.605171	0.002944	4.067616
156.692050	5276.910569	10.610176	0.002949	4.065458
156.647363	5270.856775	10.615181	0.002959	4.063276
156.579336	5264.909584	10.620186	0.002973	4.061128
156.508687	5258.861358	10.625191	0.002988	4.058943
156.438263	5252.913338	10.630195	0.003002	4.056793
156.225203	5246.860464	10.635200	0.003044	4.054592
156.391988	5240.888191	10.640205	0.003014	4.052451
156.132375	5234.834568	10.645210	0.003064	4.050243
156.221519	5228.861579	10.650215	0.003049	4.048093
156.270142	5222.847594	10.655219	0.003041	4.045923
156.214035	5216.841286	10.660224	0.003053	4.043746
156.199513	5210.823400	10.665229	0.003058	4.041567
156.313687	5204.840046	10.670234	0.003038	4.039410
156.054488	5198.861422	10.675239	0.003088	4.037223
155.917008	5192.829393	10.680243	0.003115	4.035025
155.922071	5186.799342	10.685248	0.003116	4.032839
156.063841	5180.811220	10.690253	0.003091	4.030678
155.939385	5174.777460	10.695258	0.003115	4.028477
155.997770	5168.824659	10.700263	0.003106	4.026320
155.698915	5162.778144	10.705267	0.003163	4.024097
155.635773	5156.795866	10.710272	0.003177	4.021916
155.616655	5150.751658	10.715277	0.003182	4.019715
155.780440	5144.793983	10.720282	0.003153	4.017560
155.663273	5138.754436	10.725287	0.003176	4.015351
155.676268	5132.788812	10.730291	0.003175	4.013178
155.511956	5126.731909	10.735296	0.003207	4.010955
155.482225	5120.763192	10.740301	0.003215	4.008775
155.374576	5114.746782	10.745306	0.003236	4.006570
155.603165	5108.725621	10.750311	0.003195	4.004390
155.364163	5102.727095	10.755315	0.003241	4.002178
155.351080	5096.739422	10.760320	0.003245	3.999987
155.236296	5090.741452	10.765325	0.003268	3.997783
155.315037	5084.695257	10.770330	0.003255	3.995577
155.304155	5078.711004	10.775335	0.003258	3.993384
155.333374	5072.702692	10.780339	0.003254	3.991185
155.155380	5066.678516	10.785344	0.003289	3.988961
155.188238	5060.728762	10.790349	0.003285	3.986781
155.151700	5054.661756	10.795354	0.003293	3.984551
155.087711	5048.687945	10.800359	0.003306	3.982352
155.022976	5042.670076	10.805363	0.003320	3.980135
155.070402	5036.696073	10.810368	0.003313	3.977943
155.032769	5030.641155	10.815373	0.003321	3.975712
154.986560	5024.664613	10.820378	0.003331	3.973508
154.716988	5018.636813	10.825383	0.003383	3.971265
154.891432	5012.629858	10.830387	0.003352	3.969066
154.975598	5006.659470	10.835392	0.003338	3.966873
154.816234	5000.652143	10.840397	0.003369	3.964642
154.597127	4994.646426	10.845402	0.003412	3.962406
154.657157	4988.609811	10.850407	0.003402	3.960182
154.616612	4982.618276	10.855411	0.003411	3.957965
154.567412	4976.600948	10.860416	0.003422	3.955736
154.463377	4970.613624	10.865421	0.003443	3.953512
154.466363	4964.594033	10.870426	0.003444	3.951284
154.462501	4958.567675	10.875431	0.003446	3.949052
154.511902	4952.601895	10.880435	0.003438	3.946845
154.401208	4946.555687	10.885440	0.003460	3.944594
154.406326	4940.602187	10.890445	0.003461	3.942385
154.293278	4934.551693	10.895450	0.003484	3.940129
154.309831	4928.603889	10.900455	0.003482	3.937922
154.154650	4922.540210	10.905459	0.003513	3.935655
154.289703	4916.569045	10.910464	0.003489	3.933446
154.145146	4910.528262	10.915469	0.003517	3.931186
153.922716	4904.587719	10.920474	0.003561	3.928955
153.987023	4898.521327	10.925479	0.003550	3.926701
153.977555	4892.518025	10.930483	0.003553	3.924463
153.948690	4886.513619	10.935488	0.003560	3.922221
153.944030	4880.516026	10.940493	0.003563	3.919983
153.836146	4874.519173	10.945498	0.003584	3.917735
153.869211	4868.519361	10.950503	0.003580	3.915497
153.806380	4862.503541	10.955507	0.003593	3.913242
153.845649	4856.485731	10.960512	0.003587	3.910996
153.798056	4850.534079	10.965517	0.003597	3.908764
153.772952	4844.479534	10.970522	0.003604	3.906495
153.593724	4838.464181	10.975527	0.003639	3.904225
153.545275	4832.474004	10.980531	0.003649	3.901976
153.575337	4826.459110	10.985536	0.003645	3.899723
153.555169	4820.464027	10.990541	0.003650	3.897471
153.546899	4814.453736	10.995546	0.003653	3.895214
153.386100	4808.473196	11.000551	0.003685	3.892952
153.367920	4802.436621	11.005555	0.003690	3.890681
153.291761	4796.451707	11.010560	0.003706	3.888423
153.193214	4790.425168	11.015565	0.003726	3.886146
153.152833	4784.454341	11.020570	0.003735	3.883893
153.308206	4778.395375	11.025575	0.003707	3.881625
153.198287	4772.426119	11.030579	0.003729	3.879364
153.110866	4766.432563	11.035584	0.003747	3.877095
152.874262	4760.409540	11.040589	0.003793	3.874800
152.897763	4754.390252	11.045594	0.003790	3.872528
152.816635	4748.412462	11.050599	0.003807	3.870262
152.847800	4742.386794	11.055603	0.003803	3.867986
152.935907	4736.370511	11.060608	0.003787	3.865718
152.866036	4730.394783	11.065613	0.003802	3.863449
152.683500	4724.376893	11.070618	0.003838	3.861153
152.738178	4718.374457	11.075623	0.003829	3.858883
152.487180	4712.387211	11.080627	0.003878	3.856589
152.553700	4706.330571	11.085632	0.003867	3.854297
152.665001	4700.335541	11.090637	0.003847	3.852031
152.538729	4694.364640	11.095642	0.003872	3.849750
152.563740	4688.299343	11.100647	0.003869	3.847447
152.458069	4682.295292	11.105651	0.003891	3.845153
152.595440	4676.338293	11.110656	0.003866	3.842899
152.536723	4670.305238	11.115661	0.003879	3.840596
152.618363	4664.325555	11.120666	0.003865	3.838325
152.477846	4658.306824	11.125671	0.003893	3.836017
152.307083	4652.311526	11.130675	0.003926	3.833713
152.061743	4646.294203	11.135680	0.003974	3.831393
152.098176	4640.315509	11.140685	0.003968	3.829113
152.271736	4634.244350	11.145690	0.003937	3.826809
152.146228	4628.290845	11.150695	0.003962	3.824520
151.939447	4622.259976	11.155699	0.004003	3.822192
151.996309	4616.253065	11.160704	0.003994	3.819898
151.982610	4610.271325	11.165709	0.003998	3.817605
152.108718	4604.250320	11.170714	0.003975	3.815308
152.095852	4598.257658	11.175719	0.003979	3.813008
151.989469	4592.236579	11.180723	0.004001	3.810687
151.990520	4586.259935	11.185728	0.004002	3.808392
151.798470	4580.236706	11.190733	0.004040	3.806059
151.609783	4574.225352	11.195738	0.004076	3.803729
151.702979	4568.209137	11.200743	0.004060	3.801423
151.613071	4562.235725	11.205747	0.004079	3.799115
151.640740	4556.201797	11.210752	0.004075	3.796793
151.536389	4550.224767	11.215757	0.004096	3.794479
151.393076	4544.202102	11.220762	0.004125	3.792142
151.583331	4538.162055	11.225767	0.004090	3.789829
151.477599	4532.217463	11.230771	0.004112	3.787523
151.484620	4526.151383	11.235776	0.004112	3.785180
151.341742	4520.208144	11.240781	0.004140	3.782868
151.201220	4514.146205	11.245786	0.004168	3.780509
151.191444	4508.218161	11.250791	0.004171	3.778213
151.092602	4502.137223	11.255795	0.004191	3.775848
151.059015	4496.172578	11.260800	0.004199	3.773533
150.971386	4490.124610	11.265805	0.004217	3.771179
151.078585	4484.174598	11.270810	0.004198	3.768880
150.922338	4478.127306	11.275815	0.004229	3.766516
150.803404	4472.139545	11.280819	0.004253	3.764178
150.842119	4466.112621	11.285824	0.004247	3.761838
150.883923	4460.124749	11.290829	0.004241	3.759513
150.754207	4454.114094	11.295834	0.004267	3.757160
150.686467	4448.109244	11.300839	0.004281	3.754814
150.623143	4442.087847	11.305843	0.004294	3.752461
150.547978	4436.098057	11.310848	0.004310	3.750117
150.493112	4430.104513	11.315853	0.004322	3.747772
150.433244	4424.086443	11.320858	0.004334	3.745416
150.367810	4418.079987	11.325863	0.004348	3.743062
150.559538	4412.079213	11.330867	0.004314	3.740735
150.404899	4406.091748	11.335872	0.004344	3.738377
150.347675	4400.067472	11.340877	0.004356	3.736013
150.379850	4394.057001	11.345882	0.004352	3.733661
150.400881	4388.049948	11.350887	0.004349	3.731308
150.171455	4382.069768	11.355891	0.004394	3.728940
150.204807	4376.029037	11.360896	0.004389	3.726572
149.992445	4370.073746	11.365901	0.004430	3.724212
150.096034	4364.004534	11.370906	0.004413	3.721837
149.817173	4358.059633	11.375911	0.004466	3.719471
149.816698	4352.005619	11.380915	0.004468	3.717089
149.725637	4346.041218	11.385920	0.004486	3.714731
149.745839	4339.997584	11.390925	0.004484	3.712352
149.832490	4333.998624	11.395930	0.004469	3.709995
149.723620	4328.005162	11.400935	0.004491	3.707620
149.813642	4321.982899	11.405939	0.004476	3.705251
149.749251	4315.979476	11.410944	0.004489	3.702873
149.709752	4309.954615	11.415949	0.004498	3.700488
149.740622	4304.007155	11.420954	0.004494	3.698138
149.567273	4297.962062	11.425959	0.004528	3.695728
149.546020	4291.967077	11.430963	0.004534	3.693352
149.324252	4285.967592	11.435968	0.004577	3.690951
149.275565	4279.965427	11.440973	0.004587	3.688566
149.360649	4273.922554	11.445978	0.004573	3.686177
149.349324	4267.946871	11.450983	0.004576	3.683803
149.317131	4261.920720	11.455987	0.004584	3.681405
149.192411	4255.963159	11.460992	0.004609	3.679024
149.198789	4249.909837	11.465997	0.004609	3.676616
149.245166	4243.935613	11.471002	0.004602	3.674243
149.061875	4237.896003	11.476007	0.004638	3.671818
149.096554	4231.929464	11.481011	0.004633	3.669443
149.112681	4225.905057	11.486016	0.004631	3.667041
149.101972	4219.900910	11.491021	0.004635	3.664644
148.964266	4213.879630	11.496026	0.004662	3.662224
148.864029	4207.902675	11.501031	0.004682	3.659825
148.795086	4201.891149	11.506035	0.004697	3.657414
148.836462	4195.890128	11.511040	0.004690	3.655016
148.762937	4189.863587	11.516045	0.004706	3.652595
148.591220	4183.886804	11.521050	0.004739	3.650182
148.648172	4177.843796	11.526055	0.004730	3.647765
148.678089	4171.855344	11.531059	0.004726	3.645365
148.684343	4165.814014	11.536064	0.004726	3.642940
148.478523	4159.877688	11.541069	0.004767	3.640533
148.449737	4153.824024	11.546074	0.004773	3.638096
148.514721	4147.854731	11.551079	0.004763	3.635701
148.538271	4141.808665	11.556083	0.004760	3.633269
148.461590	4135.819104	11.561088	0.004776	3.630848
148.347827	4129.830864	11.566093	0.004799	3.628422
148.364396	4123.799512	11.571098	0.004797	3.625991
148.297678	4117.790858	11.576103	0.004811	3.623558
148.125870	4111.814511	11.581107	0.004845	3.621126
148.101087	4105.793006	11.586112	0.004851	3.618689
148.201234	4099.783000	11.591117	0.004833	3.616268
148.097941	4093.767781	11.596122	0.004854	3.613823
148.010482	4087.730963	11.601127	0.004872	3.611368
147.998713	4081.720029	11.606131	0.004876	3.608931
147.944591	4075.721964	11.611136	0.004888	3.606492
147.839945	4069.712023	11.616141	0.004909	3.604041
147.901764	4063.688630	11.621146	0.004899	3.601602
147.727158	4057.726808	11.626151	0.004933	3.599160
147.681581	4051.697591	11.631155	0.004943	3.596703
147.691231	4045.678691	11.636160	0.004943	3.594254
147.732447	4039.665540	11.641165	0.004936	3.591810
147.723895	4033.697141	11.646170	0.004939	3.589376
147.648831	4027.686805	11.651175	0.004955	3.586917
147.638162	4021.662117	11.656179	0.004958	3.584457
147.506379	4015.681171	11.661184	0.004985	3.582001
147.294599	4009.680458	11.666189	0.005026	3.579526
147.433346	4003.631841	11.671194	0.005001	3.577067
147.388774	3997.660941	11.676199	0.005011	3.574619
147.269441	3991.659820	11.681203	0.005035	3.572148
147.213598	3985.635443	11.686208	0.005047	3.569674
147.091660	3979.633537	11.691213	0.005071	3.567199
147.071578	3973.625597	11.696218	0.005077	3.564731
146.941110	3967.610816	11.701223	0.005103	3.562247
147.013416	3961.619407	11.706227	0.005091	3.559793
146.926540	3955.618949	11.711232	0.005108	3.557316
146.987742	3949.608408	11.716237	0.005098	3.554849
146.751580	3943.597674	11.721242	0.005144	3.552348
146.788604	3937.604222	11.726247	0.005139	3.549883
146.675879	3931.579838	11.731251	0.005161	3.547386
146.658615	3925.581225	11.736256	0.005166	3.544909
146.560883	3919.581800	11.741261	0.005186	3.542420
146.458841	3913.578725	11.746266	0.005207	3.539928
146.508335	3907.553094	11.751271	0.005199	3.537442
146.437051	3901.574466	11.756275	0.005214	3.534960
146.467484	3895.542012	11.761280	0.005209	3.532465
146.483692	3889.553000	11.766285	0.005208	3.529985
146.645878	3883.523891	11.771290	0.005179	3.527503
146.562166	3877.536902	11.776295	0.005196	3.525009
146.274742	3871.535075	11.781299	0.005251	3.522484
146.304870	3865.529241	11.786304	0.005247	3.519992
146.258712	3859.516572	11.791309	0.005257	3.517486
146.173091	3853.515794	11.796314	0.005275	3.514979
146.237063	3847.501683	11.801319	0.005264	3.512482
146.103740	3841.520073	11.806323	0.005291	3.509974
146.099409	3835.472238	11.811328	0.005293	3.507451
146.009186	3829.501194	11.816333	0.005312	3.504948
145.931929	3823.488382	11.821338	0.005328	3.502428
145.923008	3817.486187	11.826343	0.005331	3.499919
145.850814	3811.473255	11.831347	0.005346	3.497395
145.796808	3805.475456	11.836352	0.005357	3.494879
145.737347	3799.474535	11.841357	0.005370	3.492358
145.794708	3793.471033	11.846362	0.005361	3.489848
145.834363	3787.443865	11.851367	0.005355	3.487324
145.732253	3781.452633	11.856371	0.005376	3.484798
145.728286	3775.444479	11.861376	0.005378	3.482273
145.532186	3769.446604	11.866381	0.005416	3.479730
145.521237	3763.424639	11.871386	0.005420	3.477195
145.511730	3757.440779	11.876391	0.005423	3.474674
145.537695	3751.413140	11.881395	0.005419	3.472138
145.444313	3745.440000	11.886400	0.005438	3.469609
145.516266	3739.400542	11.891405	0.005426	3.467069
145.261933	3733.419264	11.896410	0.005476	3.464514
145.305301	3727.410453	11.901415	0.005469	3.461980
145.173196	3721.410141	11.906419	0.005495	3.459427
145.215127	3715.392098	11.911424	0.005489	3.456885
145.218079	3709.358846	11.916429	0.005490	3.454331
145.165698	3703.392976	11.921434	0.005501	3.451796
145.166828	3697.380890	11.926439	0.005502	3.449246
145.063285	3691.395146	11.931443	0.005523	3.446694
145.058982	3685.336141	11.936448	0.005526	3.444120
145.015073	3679.360015	11.941453	0.005535	3.441574
144.954319	3673.353313	11.946458	0.005548	3.439012
144.842743	3667.384789	11.951463	0.005571	3.436458
144.730302	3661.319905	11.956467	0.005593	3.433861
144.832690	3655.343677	11.961472	0.005576	3.431325
144.792233	3649.322380	11.966477	0.005585	3.428752
144.650450	3643.354553	11.971482	0.005613	3.426187
144.715838	3637.289252	11.976487	0.005602	3.423603
144.693177	3631.327063	11.981491	0.005608	3.421051
144.547960	3625.323445	11.986496	0.005636	3.418464
144.494764	3619.315234	11.991501	0.005648	3.415885
144.485552	3613.290050	11.996506	0.005651	3.413301
144.415741	3607.320272	12.001511	0.005666	3.410733
144.380904	3601.281437	12.006515	0.005674	3.408136
144.337194	3595.277993	12.011520	0.005683	3.405552
144.387758	3589.270615	12.016525	0.005675	3.402976
144.205633	3583.293368	12.021530	0.005711	3.400383
144.246067	3577.255126	12.026535	0.005705	3.397788
144.210816	3571.273477	12.031539	0.005713	3.395206
144.153380	3565.247511	12.036544	0.005725	3.392601
144.177327	3559.261602	12.041549	0.005722	3.390020
144.042982	3553.247339	12.046554	0.005749	3.387407
143.946191	3547.236801	12.051559	0.005769	3.384798
144.039218	3541.247751	12.056563	0.005753	3.382218
143.986872	3535.230606	12.061568	0.005764	3.379607
143.788418	3529.244877	12.066573	0.005803	3.376990
143.565094	3523.226151	12.071578	0.005846	3.374354
143.665005	3517.201104	12.076583	0.005829	3.371752
143.714235	3511.229919	12.081587	0.005821	3.369165
143.612505	3505.196718	12.086592	0.005842	3.366531
143.543794	3499.174200	12.091597	0.005856	3.363904
143.528950	3493.226076	12.096602	0.005860	3.361313
143.451946	3487.159385	12.101607	0.005876	3.358661
143.495032	3481.201599	12.106611	0.005870	3.356069
143.288452	3475.169037	12.111616	0.005910	3.353412
143.467899	3469.172609	12.116621	0.005878	3.350816
143.258773	3463.161080	12.121626	0.005918	3.348164
143.166475	3457.171120	12.126631	0.005937	3.345533
143.154360	3451.153585	12.131635	0.005941	3.342898
143.102752	3445.166067	12.136640	0.005952	3.340270
143.245597	3439.146110	12.141645	0.005927	3.337648
143.075084	3433.141471	12.146650	0.005960	3.334994
142.981202	3427.143041	12.151655	0.005979	3.332349
142.949100	3421.129313	12.156659	0.005987	3.329702
142.970350	3415.123912	12.161664	0.005984	3.327064
142.760383	3409.126275	12.166669	0.006025	3.324399
142.772677	3403.120214	12.171674	0.006025	3.321755
142.821459	3397.092420	12.176679	0.006017	3.319104
142.697306	3391.101623	12.181683	0.006042	3.316446
142.663899	3385.099432	12.186688	0.006049	3.313792
142.692916	3379.100791	12.191693	0.006045	3.311145
142.777184	3373.094945	12.196698	0.006031	3.308500
142.596973	3367.073672	12.201703	0.006066	3.305813
142.544528	3361.074318	12.206707	0.006078	3.303149
142.403514	3355.090664	12.211712	0.006106	3.300479
142.373705	3349.084851	12.216717	0.006113	3.297811
142.428671	3343.031925	12.221722	0.006104	3.295131
142.408797	3337.080831	12.226727	0.006109	3.292484
142.180116	3331.050241	12.231731	0.006154	3.289773
142.118834	3325.042035	12.236736	0.006167	3.287092
142.090920	3319.029347	12.241741	0.006173	3.284410
142.206718	3313.039102	12.246746	0.006153	3.281754
142.021654	3307.043526	12.251751	0.006189	3.279056
142.029213	3301.018098	12.256755	0.006189	3.276366
141.974293	3295.025761	12.261760	0.006201	3.273681
141.880270	3289.050831	12.266765	0.006220	3.270997
141.835172	3282.993104	12.271770	0.006230	3.268279
141.913848	3277.009157	12.276775	0.006217	3.265609
141.797710	3271.029612	12.281779	0.006240	3.262913
141.673560	3264.980152	12.286784	0.006265	3.260182
141.599322	3259.011297	12.291789	0.006280	3.257492
141.608962	3252.973606	12.296794	0.006280	3.254779
141.722170	3246.990595	12.301799	0.006260	3.252102
141.629908	3240.971052	12.306803	0.006279	3.249380
141.452772	3234.973821	12.311808	0.006314	3.246655
141.429007	3228.963674	12.316813	0.006320	3.243941
141.257669	3222.968098	12.321818	0.006353	3.241213
141.459469	3216.934209	12.326823	0.006317	3.238513
141.279246	3210.965833	12.331827	0.006352	3.235791
141.331304	3204.947356	12.336832	0.006344	3.233074
141.228342	3198.944387	12.341837	0.006365	3.230342
141.075944	3192.950343	12.346842	0.006395	3.227606
140.905862	3186.919057	12.351847	0.006428	3.224847
141.013225	3180.945669	12.356851	0.006410	3.222149
141.047553	3174.906782	12.361856	0.006405	3.219409
140.961303	3168.929480	12.366861	0.006422	3.216679
140.898523	3162.879968	12.371866	0.006436	3.213917
141.042295	3156.918982	12.376871	0.006410	3.211220
140.832918	3150.912227	12.381875	0.006451	3.208454
140.828669	3144.873815	12.386880	0.006453	3.205697
140.679335	3138.919811	12.391885	0.006483	3.202958
140.672480	3132.868636	12.396890	0.006486	3.200191
140.565822	3126.893657	12.401895	0.006507	3.197443
140.501598	3120.861931	12.406899	0.006521	3.194672
140.570993	3114.861041	12.411904	0.006509	3.191931
140.614555	3108.852972	12.416909	0.006502	3.189180
140.604632	3102.851188	12.421914	0.006506	3.186423
140.491108	3096.864077	12.426919	0.006528	3.183657
140.394508	3090.839360	12.431923	0.006548	3.180873
140.278502	3084.868275	12.436928	0.006571	3.178108
140.243497	3078.828278	12.441933	0.006579	3.175321
140.173187	3072.858610	12.446938	0.006594	3.172559
140.230953	3066.813910	12.451943	0.006585	3.169776
140.075686	3060.846866	12.456947	0.006615	3.166999
139.902017	3054.804753	12.461952	0.006649	3.164182
139.922611	3048.826540	12.466957	0.006647	3.161418
139.882325	3042.801100	12.471962	0.006656	3.158622
139.967331	3036.782419	12.476967	0.006642	3.155843
139.953463	3030.808407	12.481971	0.006646	3.153069
139.947569	3024.772840	12.486976	0.006648	3.150265
139.747792	3018.792862	12.491981	0.006687	3.147458
139.775780	3012.766966	12.496986	0.006684	3.144658
139.836913	3006.779010	12.501991	0.006674	3.141878
139.786337	3000.789279	12.506995	0.006684	3.139080
139.618486	2994.764098	12.512000	0.006717	3.136246
139.575390	2988.772990	12.517005	0.006727	3.133443
139.521441	2982.734337	12.522010	0.006739	3.130613
139.530643	2976.744822	12.527015	0.006738	3.127813
139.382154	2970.731968	12.532019	0.006768	3.124978
139.456166	2964.740356	12.537024	0.006755	3.122180
139.217992	2958.747342	12.542029	0.006802	3.119336
139.303030	2952.722089	12.547034	0.006787	3.116519
139.169849	2946.742055	12.552039	0.006814	3.113691
139.130128	2940.709699	12.557043	0.006823	3.110849
139.078732	2934.706179	12.562048	0.006834	3.108015
139.113731	2928.706069	12.567053	0.006829	3.105193
138.976077	2922.709651	12.572058	0.006856	3.102346
139.182898	2916.692644	12.577063	0.006819	3.099535
139.085088	2910.693614	12.582067	0.006838	3.096687
139.040744	2904.719457	12.587072	0.006848	3.093855
138.840677	2898.700876	12.592077	0.006887	3.090979
138.771427	2892.690459	12.597082	0.006902	3.088121
138.735541	2886.643603	12.602087	0.006910	3.085249
138.642498	2880.709258	12.607091	0.006929	3.082419
138.576346	2874.658881	12.612096	0.006943	3.079535
138.591599	2868.666387	12.617101	0.006941	3.076688
138.510567	2862.662526	12.622106	0.006958	3.073819
138.614455	2856.643278	12.627111	0.006940	3.070965
138.401108	2850.664772	12.632115	0.006982	3.068084
138.328053	2844.647388	12.637120	0.006997	3.065202
138.286798	2838.632207	12.642125	0.007006	3.062322
138.351823	2832.637678	12.647130	0.006995	3.059465
138.227459	2826.627694	12.652135	0.007020	3.056570
138.140992	2820.649404	12.657139	0.007038	3.053694
138.010329	2814.592908	12.662144	0.007064	3.050770
138.016057	2808.620924	12.667149	0.007064	3.047904
137.874553	2802.611084	12.672154	0.007092	3.044997
138.012370	2796.587324	12.677159	0.007068	3.042119
137.905024	2790.601598	12.682163	0.007090	3.039222
137.871789	2784.597091	12.687168	0.007097	3.036324
137.667159	2778.600627	12.692173	0.007137	3.033402
137.781475	2772.566512	12.697178	0.007117	3.030505
137.805015	2766.568912	12.702183	0.007114	3.027610
137.794482	2760.574249	12.707187	0.007118	3.024709
137.632089	2754.582769	12.712192	0.007150	3.021785
137.593127	2748.575946	12.717197	0.007158	3.018868
137.380212	2742.552074	12.722202	0.007200	3.015915
137.377867	2736.573098	12.727207	0.007202	3.013011
137.257145	2730.548464	12.732211	0.007226	3.010065
137.213769	2724.549727	12.737216	0.007236	3.007140
137.283368	2718.524460	12.742221	0.007224	3.004216
137.173136	2712.539441	12.747226	0.007246	3.001282
137.039427	2706.508514	12.752231	0.007273	2.998320
137.106955	2700.539818	12.757235	0.007262	2.995414
137.012189	2694.531529	12.762240	0.007281	2.992462
137.114794	2688.506582	12.767245	0.007263	2.989529
136.904835	2682.505147	12.772250	0.007304	2.986558
136.833809	2676.528695	12.777255	0.007319	2.983616
136.842066	2670.474057	12.782259	0.007319	2.980646
136.831901	2664.523683	12.787264	0.007322	2.977720
136.717671	2658.501855	12.792269	0.007345	2.974742
136.726944	2652.485860	12.797274	0.007345	2.971781
136.597605	2646.477542	12.802279	0.007371	2.968801
136.684549	2640.472411	12.807283	0.007356	2.965851
136.525248	2634.489006	12.812288	0.007387	2.962873
136.651404	2628.463828	12.817293	0.007365	2.959913
136.618156	2622.446477	12.822298	0.007373	2.956931
136.571328	2616.473948	12.827303	0.007383	2.953965
136.406784	2610.459161	12.832307	0.007415	2.950958
136.237998	2604.448739	12.837312	0.007448	2.947950
136.339635	2598.442861	12.842317	0.007431	2.944981
136.393108	2592.435529	12.847322	0.007422	2.942002
136.268998	2586.446428	12.852327	0.007447	2.939001
136.167175	2580.437382	12.857331	0.007468	2.935992
136.111268	2574.436964	12.862336	0.007480	2.932990
136.162717	2568.414672	12.867341	0.007471	2.929990
136.037318	2562.420116	12.872346	0.007496	2.926975
136.068884	2556.425514	12.877351	0.007492	2.923980
135.958727	2550.398297	12.882355	0.007514	2.920944
135.961379	2544.417324	12.887360	0.007515	2.917945
135.717710	2538.407052	12.892365	0.007562	2.914891
135.764479	2532.380442	12.897370	0.007555	2.911870
135.859929	2526.374455	12.902375	0.007539	2.908864
135.828908	2520.383844	12.907379	0.007546	2.905842
135.624985	2514.408611	12.912384	0.007586	2.902799
135.485868	2508.382373	12.917389	0.007613	2.899737
135.433731	2502.354699	12.922394	0.007625	2.896685
135.493211	2496.355643	12.927399	0.007615	2.893660
135.525619	2490.356256	12.932403	0.007610	2.890629
135.546573	2484.346303	12.937408	0.007608	2.887586
135.405025	2478.365063	12.942413	0.007636	2.884531
135.286044	2472.353267	12.947418	0.007660	2.881460
135.082216	2466.345570	12.952423	0.007699	2.878374
135.109411	2460.336558	12.957427	0.007696	2.875320
135.054705	2454.335002	12.962432	0.007708	2.872255
135.200625	2448.307417	12.967437	0.007682	2.869203
134.960839	2442.323847	12.972442	0.007728	2.866111
134.977189	2436.335190	12.977447	0.007727	2.863053
134.812241	2430.321726	12.982451	0.007759	2.859951
134.804085	2424.303495	12.987456	0.007762	2.856868
134.791199	2418.319382	12.992461	0.007766	2.853797
134.898389	2412.296444	12.997466	0.007747	2.850723
134.693434	2406.288698	13.002471	0.007787	2.847604
134.739207	2400.299395	13.007475	0.007780	2.844530
134.486596	2394.300765	13.012480	0.007829	2.841401
134.466049	2388.277666	13.017485	0.007834	2.838293
134.417197	2382.287395	13.022490	0.007845	2.835194
134.465788	2376.263514	13.027495	0.007837	2.832089
134.275355	2370.287063	13.032499	0.007875	2.828968
134.220213	2364.276344	13.037504	0.007886	2.825847
134.137291	2358.256163	13.042509	0.007904	2.822713
134.160563	2352.260550	13.047514	0.007901	2.819605
133.958706	2346.248345	13.052519	0.007940	2.816449
134.139795	2340.244438	13.057523	0.007908	2.813356
134.063383	2334.241273	13.062528	0.007923	2.810218
134.079319	2328.226563	13.067533	0.007922	2.807085
133.967810	2322.248900	13.072538	0.007944	2.803948
133.978985	2316.236547	13.077543	0.007944	2.800809
133.812533	2310.200466	13.082547	0.007976	2.797625
133.902467	2304.244702	13.087552	0.007961	2.794521
133.801730	2298.215740	13.092557	0.007981	2.791344
133.775169	2292.206438	13.097562	0.007988	2.788187
133.620126	2286.208083	13.102567	0.008018	2.785010
133.662316	2280.205438	13.107571	0.008012	2.781860
133.572092	2274.195472	13.112576	0.008030	2.778680
133.655603	2268.204295	13.117581	0.008016	2.775535
133.601554	2262.177371	13.122586	0.008028	2.772346
133.425503	2256.197628	13.127591	0.008062	2.769157
133.201626	2250.198446	13.132595	0.008106	2.765947
133.285218	2244.172749	13.137600	0.008092	2.762769
133.130830	2238.167258	13.142605	0.008122	2.759559
133.198589	2232.184435	13.147610	0.008111	2.756395
133.151651	2226.136669	13.152615	0.008121	2.753173
133.029417	2220.179843	13.157619	0.008146	2.749983
132.927662	2214.146315	13.162624	0.008166	2.746752
133.124682	2208.160856	13.167629	0.008131	2.743592
132.925686	2202.140789	13.172634	0.008170	2.740345
132.859820	2196.149513	13.177639	0.008183	2.737131
132.717266	2190.157177	13.182643	0.008212	2.733900
132.851414	2184.118840	13.187648	0.008188	2.730687
132.588601	2178.142855	13.192653	0.008239	2.727437
132.631221	2172.132761	13.197658	0.008232	2.724216
132.476325	2166.116059	13.202663	0.008263	2.720955
132.647882	2160.087441	13.207667	0.008232	2.717738
132.602802	2154.118003	13.212672	0.008242	2.714512
132.495810	2148.127663	13.217677	0.008264	2.711261
132.205314	2142.111401	13.222682	0.008320	2.707961
132.417218	2136.087096	13.227687	0.008281	2.704738
132.178204	2130.122500	13.232691	0.008328	2.701467
131.964263	2124.097014	13.237696	0.008369	2.698163
131.888576	2118.108639	13.242701	0.008385	2.694899
131.941414	2112.072284	13.247706	0.008377	2.691626
131.913136	2106.064129	13.252711	0.008383	2.688351
131.901985	2100.084837	13.257715	0.008387	2.685091
131.885123	2094.061997	13.262720	0.008392	2.681802
131.874826	2088.055911	13.267725	0.008395	2.678519
131.804200	2082.076184	13.272730	0.008410	2.675236
131.745272	2076.063125	13.277735	0.008422	2.671933
131.639558	2070.037571	13.282739	0.008444	2.668611
131.716223	2064.070069	13.287744	0.008431	2.665348
131.683584	2058.037015	13.292749	0.008438	2.662026
131.456722	2052.064307	13.297754	0.008482	2.658700
131.262708	2046.048659	13.302759	0.008520	2.655351
131.241290	2040.026353	13.307763	0.008526	2.652025
131.176219	2034.013270	13.312768	0.008539	2.648692
131.219265	2028.046935	13.317773	0.008533	2.645399
131.199356	2021.995803	13.322778	0.008538	2.642044
131.115805	2016.024559	13.327783	0.008555	2.638718
131.165226	2010.004734	13.332787	0.008547	2.635385
131.148787	2004.018126	13.337792	0.008552	2.632054
130.944695	1998.001350	13.342797	0.008592	2.628668
131.060245	1992.014230	13.347802	0.008572	2.625352
130.773152	1985.997723	13.352807	0.008627	2.621943
130.861752	1979.999212	13.357811	0.008612	2.618607
130.667984	1974.001786	13.362816	0.008650	2.615217
130.673740	1967.974197	13.367821	0.008650	2.611841
130.649899	1961.977708	13.372826	0.008656	2.608473
130.612279	1955.993082	13.377831	0.008665	2.605105
130.559109	1949.965139	13.382835	0.008676	2.601706
130.552036	1943.961454	13.387840	0.008679	2.598323
130.351477	1937.997634	13.392845	0.008718	2.594924
130.334205	1931.955990	13.397850	0.008723	2.591510
130.225399	1925.946267	13.402855	0.008745	2.588093
130.232062	1919.974670	13.407859	0.008745	2.584713
130.188788	1913.946185	13.412864	0.008754	2.581288
130.123715	1907.932966	13.417869	0.008768	2.577863
130.106611	1901.886103	13.422874	0.008773	2.574423
130.127480	1895.928107	13.427879	0.008770	2.571036
130.103120	1889.923429	13.432883	0.008776	2.567610
130.140389	1883.924551	13.437888	0.008771	2.564193
129.945048	1877.929767	13.442893	0.008809	2.560732
129.874639	1871.957459	13.447898	0.008824	2.557302
129.749086	1865.909876	13.452903	0.008849	2.553814
129.693734	1859.927525	13.457907	0.008861	2.550371
129.686333	1853.901518	13.462912	0.008864	2.546908
129.749925	1847.896983	13.467917	0.008853	2.543465
129.671646	1841.899783	13.472922	0.008869	2.539996
129.516640	1835.937106	13.477927	0.008900	2.536528
129.404941	1829.891272	13.482931	0.008922	2.533014
129.430832	1823.895407	13.487936	0.008919	2.529551
129.405989	1817.869925	13.492941	0.008925	2.526056
129.409552	1811.885602	13.497946	0.008926	2.522585
129.193580	1805.882467	13.502951	0.008968	2.519058
129.295748	1799.890500	13.507955	0.008950	2.515592
129.206550	1793.869321	13.512960	0.008968	2.512068
129.041008	1787.880211	13.517965	0.009001	2.508543
128.842419	1781.876123	13.522970	0.009040	2.504999
129.084045	1775.853740	13.527975	0.008996	2.501522
128.967609	1769.855882	13.532979	0.009019	2.497986
128.968285	1763.858531	13.537984	0.009021	2.494468
128.716455	1757.861000	13.542989	0.009069	2.490897
128.718553	1751.849505	13.547994	0.009070	2.487361
128.751238	1745.824734	13.552999	0.009066	2.483818
128.638580	1739.848193	13.558003	0.009088	2.480271
128.661483	1733.841114	13.563008	0.009086	2.476727
128.581931	1727.851039	13.568013	0.009102	2.473167
128.430183	1721.827768	13.573018	0.009132	2.469569
128.462570	1715.834345	13.578023	0.009127	2.466019
128.296782	1709.833792	13.583027	0.009160	2.462422
128.284136	1703.805237	13.588032	0.009164	2.458832
128.161823	1697.843898	13.593037	0.009188	2.455255
128.177824	1691.809516	13.598042	0.009187	2.451657
128.070302	1685.812149	13.603047	0.009208	2.448051
128.092993	1679.793308	13.608051	0.009206	2.444453
127.942308	1673.816336	13.613056	0.009235	2.440840
128.136825	1667.804729	13.618061	0.009200	2.437269
127.864457	1661.792305	13.623066	0.009253	2.433601
127.822778	1655.799165	13.628071	0.009262	2.429984
127.656582	1649.805157	13.633075	0.009295	2.426336
127.773988	1643.786096	13.638080	0.009274	2.422724
127.536165	1637.792623	13.643085	0.009321	2.419052
127.726910	1631.775540	13.648090	0.009286	2.415445
127.591514	1625.767445	13.653095	0.009313	2.411773
127.523802	1619.802947	13.658099	0.009327	2.408135
127.286086	1613.773175	13.663104	0.009373	2.404418
127.298918	1607.759196	13.668109	0.009372	2.400756
127.247903	1601.762510	13.673114	0.009384	2.397085
127.312396	1595.755059	13.678119	0.009373	2.393425
126.948747	1589.768436	13.683123	0.009443	2.389686
127.113609	1583.753711	13.688128	0.009413	2.386031
126.878980	1577.765877	13.693133	0.009459	2.382306
126.850543	1571.771886	13.698138	0.009466	2.378613
126.808162	1565.729017	13.703143	0.009475	2.374881
126.729664	1559.752785	13.708147	0.009491	2.371178
126.681090	1553.739013	13.713152	0.009502	2.367451
126.813639	1547.727327	13.718157	0.009478	2.363756
126.555220	1541.724269	13.723162	0.009528	2.359982
126.687520	1535.731994	13.728167	0.009505	2.356288
126.513988	1529.736634	13.733171	0.009539	2.352523
126.385411	1523.732439	13.738176	0.009565	2.348756
126.397571	1517.699825	13.743181	0.009564	2.344995
126.332596	1511.735009	13.748186	0.009578	2.341253
126.279129	1505.715927	13.753191	0.009589	2.337474
126.252703	1499.717838	13.758195	0.009596	2.333708
126.149489	1493.686512	13.763200	0.009616	2.329899
126.267859	1487.712652	13.768205	0.009596	2.326166
126.068831	1481.706915	13.773210	0.009635	2.322340
126.032882	1475.712650	13.778215	0.009643	2.318550
125.726479	1469.714337	13.783219	0.009702	2.314694
125.730623	1463.678623	13.788224	0.009702	2.310873
125.774637	1457.690577	13.793229	0.009696	2.307085
125.745770	1451.697684	13.798234	0.009703	2.303272
125.599001	1445.676130	13.803239	0.009732	2.299409
125.553251	1439.702016	13.808243	0.009742	2.295591
125.396316	1433.679016	13.813248	0.009773	2.291713
125.460062	1427.677925	13.818253	0.009762	2.287888
125.274080	1421.681152	13.823258	0.009798	2.284007
125.314511	1415.656655	13.828263	0.009792	2.280149
125.295530	1409.668617	13.833267	0.009797	2.276296
125.133311	1403.685578	13.838272	0.009829	2.272409
125.011388	1397.676767	13.843277	0.009854	2.268507
125.130362	1391.643792	13.848282	0.009833	2.264635
124.963096	1385.653496	13.853287	0.009866	2.260722
125.042353	1379.659614	13.858291	0.009852	2.256853
125.006821	1373.625359	13.863296	0.009861	2.252926
124.984323	1367.662023	13.868301	0.009866	2.249041
124.816116	1361.646122	13.873306	0.009899	2.245084
124.739208	1355.661600	13.878311	0.009915	2.241160
124.612297	1349.635886	13.883315	0.009941	2.237192
124.700176	1343.648671	13.888320	0.009925	2.233288
124.570264	1337.622058	13.893325	0.009951	2.229304
124.616815	1331.639078	13.898330	0.009944	2.225381
124.365847	1325.631706	13.903335	0.009993	2.221368
124.410454	1319.644425	13.908339	0.009986	2.217427
124.278016	1313.630566	13.913344	0.010012	2.213423
124.232706	1307.637587	13.918349	0.010022	2.209444
124.178400	1301.605795	13.923354	0.010034	2.205430
124.105313	1295.637317	13.928359	0.010049	2.201447
123.946917	1289.632918	13.933363	0.010080	2.197413
123.997312	1283.598309	13.938368	0.010072	2.193399
123.965735	1277.620671	13.943373	0.010080	2.189397
123.958997	1271.604168	13.948378	0.010082	2.185367
123.854387	1265.597033	13.953383	0.010104	2.181314
123.765253	1259.637716	13.958387	0.010122	2.177290
123.653088	1253.592543	13.963392	0.010144	2.173194
123.694308	1247.611007	13.968397	0.010138	2.169169
123.521342	1241.606085	13.973402	0.010172	2.165071
123.438403	1235.596382	13.978407	0.010189	2.160983
123.232843	1229.625685	13.983411	0.010229	2.156886
123.187084	1223.593777	13.988416	0.010239	2.152776
123.115817	1217.590048	13.993421	0.010254	2.148671
123.215374	1211.589523	13.998426	0.010237	2.144600
123.045078	1205.589950	14.003431	0.010270	2.140460
123.074483	1199.588361	14.008435	0.010266	2.136356
122.984302	1193.584850	14.013440	0.010285	2.132216
122.847947	1187.608702	14.018445	0.010312	2.128075
122.864375	1181.565866	14.023450	0.010310	2.123916
122.839453	1175.588383	14.028455	0.010316	2.119785
122.728209	1169.579435	14.033459	0.010339	2.115603
122.777743	1163.567114	14.038464	0.010331	2.111448
122.630348	1157.574966	14.043469	0.010360	2.107253
122.463271	1151.608063	14.048474	0.010393	2.103062
122.432829	1145.568117	14.053479	0.010400	2.098845
122.258254	1139.599779	14.058483	0.010434	2.094634
122.140324	1133.555063	14.063488	0.010458	2.090376
122.147257	1127.556138	14.068493	0.010458	2.086170
122.047386	1121.572779	14.073498	0.010478	2.081941
122.224257	1115.538933	14.078503	0.010447	2.077735
121.975566	1109.584212	14.083507	0.010495	2.073473
122.087425	1103.549375	14.088512	0.010475	2.069233
121.837477	1097.571726	14.093517	0.010524	2.064937
121.804109	1091.567179	14.098522	0.010531	2.060666
121.621848	1085.562111	14.103527	0.010567	2.056349
121.534964	1079.558275	14.108531	0.010585	2.052047
121.495455	1073.557477	14.113536	0.010594	2.047750
121.521534	1067.544938	14.118541	0.010590	2.043452
121.421287	1061.555144	14.123546	0.010611	2.039129
121.242647	1055.584339	14.128551	0.010646	2.034792
121.115270	1049.537922	14.133555	0.010671	2.030404
121.163754	1043.562632	14.138560	0.010663	2.026101
120.981699	1037.525049	14.143565	0.010699	2.021687
121.040952	1031.560080	14.148570	0.010689	2.017375
120.831607	1025.541925	14.153575	0.010730	2.012949
120.695046	1019.569204	14.158579	0.010757	2.008564
120.669001	1013.526251	14.163584	0.010764	2.004146
120.683925	1007.549499	14.168589	0.010762	1.999777
120.573433	1001.536964	14.173594	0.010785	1.995341
120.634713	995.533225	14.178599	0.010775	1.990945
120.373377	989.556772	14.183603	0.010825	1.986477
120.309060	983.556295	14.188608	0.010839	1.982031
120.233712	977.526970	14.193613	0.010854	1.977552
120.291355	971.531641	14.198618	0.010845	1.973121
120.038381	965.561588	14.203623	0.010894	1.968619
120.099864	959.517243	14.208627	0.010884	1.964133
120.081112	953.533275	14.213632	0.010889	1.959661
120.028817	947.549114	14.218637	0.010900	1.955169
119.782174	941.548688	14.223642	0.010948	1.950605
119.788166	935.543629	14.228647	0.010948	1.946092
119.667700	929.529915	14.233651	0.010972	1.941530
119.798087	923.516896	14.238656	0.010949	1.937022
119.626696	917.529510	14.243661	0.010983	1.932444
119.660965	911.530390	14.248666	0.010978	1.927901
119.406910	905.547091	14.253671	0.011027	1.923283
119.448437	899.535259	14.258675	0.011021	1.918710
119.284858	893.523016	14.263680	0.011053	1.914071
119.266441	887.550538	14.268685	0.011058	1.909491
119.145546	881.521931	14.273690	0.011082	1.904828
119.201689	875.540194	14.278695	0.011073	1.900238
118.948719	869.542047	14.283699	0.011122	1.895541
119.014871	863.520869	14.288704	0.011111	1.890900
118.844527	857.547819	14.293709	0.011145	1.886222
118.817663	851.525104	14.298714	0.011151	1.881532
118.665319	845.539211	14.303719	0.011181	1.876825
118.625865	839.536438	14.308723	0.011190	1.872123
118.596382	833.513064	14.313728	0.011197	1.867397
118.477686	827.541351	14.318733	0.011221	1.862674
118.335545	821.551682	14.323738	0.011249	1.857919
118.379706	815.518350	14.328743	0.011242	1.853169
118.130729	809.558807	14.333747	0.011290	1.848383
118.123562	803.537379	14.338752	0.011293	1.843603
118.006871	797.534275	14.343757	0.011317	1.838795
118.111990	791.514372	14.348762	0.011298	1.834023
117.912730	785.566315	14.353767	0.011337	1.829210
117.984226	779.524041	14.358771	0.011325	1.824385
117.786920	773.558381	14.363776	0.011364	1.819534
117.746816	767.545793	14.368781	0.011373	1.814676
117.503348	761.557950	14.373786	0.011420	1.809767
117.569179	755.523835	14.378791	0.011409	1.804895
117.377263	749.556208	14.383795	0.011447	1.799991
117.398331	743.548094	14.388800	0.011444	1.795101
117.155154	737.566445	14.393805	0.011491	1.790143
117.139565	731.549484	14.398810	0.011496	1.785208
116.922063	725.565306	14.403815	0.011538	1.780229
117.045201	719.524621	14.408819	0.011516	1.775287
117.009370	713.539375	14.413824	0.011525	1.770331
116.866781	707.563991	14.418829	0.011553	1.765338
116.781366	701.559892	14.423834	0.011570	1.760324
116.734046	695.558289	14.428839	0.011581	1.755309
116.424518	689.581188	14.433843	0.011640	1.750223
116.525806	683.548962	14.438848	0.011623	1.745197
116.257005	677.589997	14.443853	0.011675	1.740108
116.253873	671.550099	14.448858	0.011677	1.735015
115.932047	665.613049	14.453863	0.011739	1.729899
115.818015	659.584182	14.458867	0.011761	1.724752
115.887709	653.537995	14.463872	0.011750	1.719630
115.782128	647.567489	14.468877	0.011771	1.714505
115.746891	641.585215	14.473882	0.011779	1.709376
115.774137	635.574346	14.478887	0.011776	1.704225
115.554608	629.589785	14.483891	0.011818	1.699006
115.465882	623.577497	14.488896	0.011836	1.693787
115.432374	617.576013	14.493901	0.011844	1.688578
115.422344	611.591577	14.498906	0.011848	1.683376
115.293333	605.600835	14.503911	0.011873	1.678114
114.985197	599.632713	14.508915	0.011933	1.672801
114.933788	593.592353	14.513920	0.011944	1.667487
114.787794	587.626402	14.518925	0.011973	1.662192
114.729097	581.593265	14.523930	0.011985	1.656848
114.733634	575.612306	14.528935	0.011986	1.651552
114.689469	569.593387	14.533939	0.011996	1.646191
114.619102	563.622113	14.538944	0.012010	1.640846
114.311264	557.654815	14.543949	0.012069	1.635412
114.069425	551.653940	14.548954	0.012116	1.629951
113.873992	545.633128	14.553959	0.012154	1.624468
114.223179	539.570227	14.558963	0.012090	1.619103
113.900587	533.662277	14.563968	0.012152	1.613645
113.723239	527.657459	14.568973	0.012187	1.608126
113.485576	521.653975	14.573978	0.012233	1.602571
113.673488	515.611628	14.578983	0.012200	1.597099
113.547538	509.650781	14.583987	0.012225	1.591580
113.535200	503.652014	14.588992	0.012228	1.586045
113.259548	497.713000	14.593997	0.012282	1.580459
113.215717	491.658974	14.599002	0.012291	1.574822
113.004497	485.701777	14.604007	0.012332	1.569200
113.018604	479.669102	14.609011	0.012331	1.563563
113.086191	473.653622	14.614016	0.012320	1.557939
112.904236	467.732358	14.619021	0.012356	1.552300
112.564931	461.742790	14.624026	0.012421	1.546522
112.325889	455.730898	14.629031	0.012467	1.540735
112.142851	449.699168	14.634035	0.012503	1.534926
112.376085	443.674930	14.639040	0.012461	1.529245
112.226858	437.721011	14.644045	0.012490	1.523479
112.086237	431.756674	14.649050	0.012518	1.517684
111.777554	425.759739	14.654055	0.012578	1.511777
111.641205	419.758767	14.659059	0.012605	1.505902
111.556260	413.742972	14.664064	0.012622	1.500009
111.566821	407.747834	14.669069	0.012622	1.494145
111.460800	401.760944	14.674074	0.012643	1.488226
111.294453	395.793151	14.679079	0.012676	1.482280
111.108242	389.776934	14.684083	0.012712	1.476255
110.928588	383.815779	14.689088	0.012747	1.470263
110.809241	377.791504	14.694093	0.012771	1.464204
110.882031	371.778007	14.699098	0.012759	1.458201
110.652525	365.813621	14.704103	0.012803	1.452113
110.379585	359.848508	14.709107	0.012856	1.445982
110.319062	353.824755	14.714112	0.012869	1.439843
110.336789	347.812429	14.719117	0.012867	1.433719
110.222529	341.833615	14.724122	0.012890	1.427554
110.071825	335.885909	14.729127	0.012920	1.421380
109.645208	329.910850	14.734131	0.013001	1.415049
109.329648	323.924231	14.739136	0.013062	1.408718
109.202054	317.874434	14.744141	0.013088	1.402363
109.411744	311.827873	14.749146	0.013050	1.396111
109.296258	305.891778	14.754151	0.013073	1.389823
109.269770	299.913504	14.759155	0.013079	1.383496
109.030804	293.927534	14.764160	0.013126	1.377050
108.875333	287.947210	14.769165	0.013156	1.370612
108.650708	281.958952	14.774170	0.013200	1.364109
108.592928	275.949429	14.779175	0.013212	1.357616
108.329063	269.992621	14.784179	0.013263	1.351068
108.116893	264.006872	14.789184	0.013304	1.344477
107.718152	258.037533	14.794189	0.013381	1.337797
107.642320	251.990951	14.799194	0.013396	1.331128
107.541066	246.016231	14.804199	0.013417	1.324494
107.585080	239.991407	14.809203	0.013410	1.317830
107.436839	234.048553	14.814208	0.013439	1.311145
107.175101	228.046209	14.819213	0.013490	1.304313
106.986749	222.047373	14.824218	0.013527	1.297479
106.828072	216.083694	14.829223	0.013558	1.290661
106.674194	210.078516	14.834227	0.013589	1.283761
106.611420	204.100295	14.839232	0.013602	1.276893
106.327455	198.156722	14.844237	0.013657	1.269935
106.144542	192.158977	14.849242	0.013692	1.262918
105.804330	186.197231	14.854247	0.013758	1.255837
105.690655	180.163378	14.859251	0.013780	1.248729
105.646129	174.167834	14.864256	0.013790	1.241654
105.404558	168.229921	14.869261	0.013837	1.234522
105.045968	162.261512	14.874266	0.013906	1.227260
104.974443	156.251657	14.879271	0.013921	1.220032
104.704158	150.264279	14.884275	0.013973	1.212700
104.523366	144.293637	14.889280	0.014008	1.205383
104.227907	138.328317	14.894285	0.014065	1.197977
103.910470	132.365013	14.899290	0.014126	1.190517
103.537236	126.397415	14.904295	0.014198	1.182980
103.270792	120.405143	14.909299	0.014249	1.175411
103.044528	114.392712	14.914304	0.014293	1.167787
102.801146	108.433901	14.919309	0.014340	1.160173
102.482866	102.464520	14.924314	0.014402	1.152460
102.323312	96.470353	14.929319	0.014433	1.144737
101.913088	90.524804	14.934323	0.014511	1.136906
101.690951	84.512293	14.939328	0.014555	1.129023
101.273863	78.580865	14.944333	0.014634	1.121097
100.911078	72.605000	14.949338	0.014704	1.113082
100.388392	66.672145	14.954343	0.014803	1.104988
100.004800	60.673481	14.959347	0.014877	1.096815
99.629107	54.687645	14.964352	0.014949	1.088601
99.345876	48.700658	14.969357	0.015004	1.080369
98.908468	42.771798	14.974362	0.015087	1.072076
98.334734	36.821223	14.979367	0.015196	1.063618
97.742784	30.863938	14.984371	0.015309	1.055074
97.277854	24.864401	14.989376	0.015397	1.046466
96.724488	18.919162	14.994381	0.015503	1.037817
96.290574	12.948283	14.999386	0.015586	1.029122
95.623232	7.035768	15.004391	0.015712	1.020312
95.016041	2.837274	15.009395	0.015827	1.013938
