Fri Jan 13 17:27:19 2023

Number of Points = 3000
Depth (nm)	Load (µN)	Time (s)	Depth (V)	Load (V)
-1.213229	1.109156	0.000000	0.032837	0.961504
0.000000	4.399142	0.005005	0.032609	0.967201
1.148985	8.983506	0.010010	0.032392	0.974782
2.395874	14.652943	0.015014	0.032157	0.983979
3.076197	20.702343	0.020019	0.032027	0.993343
3.866651	26.736698	0.025024	0.031878	1.002656
4.527201	32.817225	0.030029	0.031752	1.011880
5.150478	38.882334	0.035034	0.031634	1.020979
5.682283	44.957689	0.040038	0.031532	1.029964
6.077326	51.046063	0.045043	0.031457	1.038817
6.424873	57.113232	0.050048	0.031390	1.047541
6.767132	63.179171	0.055053	0.031324	1.056189
7.000615	69.246923	0.060058	0.031279	1.064713
7.271600	75.275351	0.065062	0.031227	1.073135
7.612761	81.315829	0.070067	0.031161	1.081542
7.985702	87.347951	0.075072	0.031090	1.089889
8.098465	93.436485	0.080077	0.031067	1.098120
8.386081	99.460439	0.085082	0.031012	1.106289
8.589721	105.507047	0.090086	0.030972	1.114387
8.936223	111.529252	0.095091	0.030905	1.122463
9.296182	117.548803	0.100096	0.030836	1.130485
9.628056	123.604027	0.105101	0.030773	1.138483
9.791535	129.676480	0.110106	0.030740	1.146367
10.032755	135.693100	0.115110	0.030694	1.154163
10.390052	141.711055	0.120115	0.030625	1.161962
10.635899	147.767470	0.125120	0.030577	1.169706
10.817400	153.806172	0.130125	0.030542	1.177347
11.276365	159.800013	0.135130	0.030454	1.185009
11.380255	165.904592	0.140134	0.030433	1.192599
11.519891	171.920729	0.145139	0.030406	1.200047
11.701526	177.956882	0.150144	0.030370	1.207493
12.200148	183.931930	0.155149	0.030275	1.214960
12.377901	190.013771	0.160154	0.030240	1.222368
12.641797	196.045481	0.165158	0.030189	1.229709
12.866966	202.060344	0.170163	0.030145	1.236970
13.099503	208.106105	0.175168	0.030100	1.244227
13.382878	214.122965	0.180173	0.030046	1.251431
13.795907	220.134969	0.185178	0.029967	1.258643
14.019287	226.175600	0.190182	0.029923	1.265766
14.324924	232.215258	0.195187	0.029864	1.272883
14.479249	238.271173	0.200192	0.029834	1.279915
14.613151	244.298356	0.205197	0.029807	1.286868
14.870450	250.295701	0.210202	0.029758	1.293801
15.352743	256.331783	0.215206	0.029666	1.300833
15.355474	262.429743	0.220211	0.029664	1.307700
15.570896	268.394047	0.225216	0.029622	1.314468
15.826735	274.404563	0.230221	0.029572	1.321270
16.296062	280.386480	0.235226	0.029483	1.328090
16.650031	286.443320	0.240230	0.029415	1.334912
16.941663	292.467451	0.245235	0.029358	1.341639
17.126700	298.525686	0.250240	0.029322	1.348327
17.378283	304.539900	0.255245	0.029274	1.354960
17.551981	310.572298	0.260250	0.029239	1.361550
17.826512	316.582527	0.265254	0.029186	1.368124
17.985663	322.635269	0.270259	0.029155	1.374667
18.343712	328.634359	0.275264	0.029086	1.381198
18.479140	334.677664	0.280269	0.029060	1.387660
18.699302	340.684427	0.285274	0.029017	1.394086
18.867990	346.720272	0.290278	0.028984	1.400494
19.275143	352.704103	0.295283	0.028906	1.406907
19.401638	358.778829	0.300288	0.028880	1.413281
19.792163	364.754407	0.305293	0.028806	1.419622
19.903312	370.805249	0.310298	0.028783	1.425908
20.244493	376.801597	0.315302	0.028718	1.432196
20.435452	382.863848	0.320307	0.028680	1.438468
20.738696	388.854745	0.325312	0.028622	1.444682
20.918064	394.904932	0.330317	0.028587	1.450883
21.237913	400.891605	0.335322	0.028525	1.457046
21.494329	406.927383	0.340326	0.028476	1.463208
21.821944	412.949441	0.345331	0.028413	1.469357
21.908740	418.976334	0.350336	0.028395	1.475398
22.203698	425.001654	0.355341	0.028338	1.481487
22.376897	431.017467	0.360346	0.028304	1.487499
22.723821	437.025742	0.365350	0.028238	1.493541
22.794841	443.088185	0.370355	0.028223	1.499514
23.148656	449.045329	0.375360	0.028155	1.505459
23.266407	455.116938	0.380365	0.028131	1.511410
23.406836	461.133278	0.385370	0.028104	1.517292
23.614359	467.134293	0.390374	0.028063	1.523160
23.828393	473.164947	0.395379	0.028021	1.529036
23.972360	479.179809	0.400384	0.027993	1.534850
24.141195	485.222277	0.405389	0.027960	1.540677
24.331369	491.200059	0.410394	0.027923	1.546427
24.640748	497.231090	0.415398	0.027863	1.552247
24.745743	503.276989	0.420403	0.027842	1.557991
25.020395	509.264347	0.425408	0.027789	1.563715
25.032361	515.327843	0.430413	0.027785	1.569402
25.394408	521.282088	0.435418	0.027716	1.575082
25.633367	527.328049	0.440422	0.027669	1.580787
25.914442	533.334010	0.445427	0.027615	1.586448
25.974052	539.394260	0.450432	0.027602	1.592066
26.341373	545.370673	0.455437	0.027532	1.597688
26.519499	551.406090	0.460442	0.027497	1.603283
26.562931	557.453513	0.465446	0.027488	1.608825
26.694914	563.457763	0.470451	0.027461	1.614337
26.987589	569.459378	0.475456	0.027405	1.619880
27.104399	575.476428	0.480461	0.027381	1.625362
27.347864	581.495523	0.485466	0.027334	1.630867
27.589091	587.507431	0.490470	0.027288	1.636347
27.743154	593.524372	0.495475	0.027257	1.641785
27.904638	599.543113	0.500480	0.027225	1.647210
28.143410	605.553666	0.505485	0.027179	1.652633
28.283829	611.596978	0.510490	0.027151	1.658037
28.350240	617.616228	0.515494	0.027137	1.663378
28.534194	623.599120	0.520499	0.027101	1.668708
28.845679	629.609681	0.525504	0.027041	1.674084
28.948604	635.657925	0.530509	0.027021	1.679411
29.186607	641.649820	0.535514	0.026974	1.684714
29.270072	647.689339	0.540518	0.026957	1.689994
29.787729	653.640979	0.545523	0.026859	1.695314
29.812133	659.735452	0.550528	0.026853	1.700591
30.137238	665.699400	0.555533	0.026790	1.705830
30.334579	671.742518	0.560538	0.026752	1.711082
30.442463	677.765778	0.565542	0.026730	1.716275
30.604119	683.772192	0.570547	0.026698	1.721453
30.805713	689.773674	0.575552	0.026659	1.726623
30.999157	695.795200	0.580557	0.026621	1.731793
31.297411	701.805118	0.585562	0.026563	1.736968
31.441475	707.834468	0.590566	0.026535	1.742099
31.687575	713.837365	0.595571	0.026487	1.747223
31.768201	719.870372	0.600576	0.026471	1.752308
32.161865	725.860546	0.605581	0.026395	1.757434
32.236360	731.890889	0.610586	0.026380	1.762485
32.531648	737.902291	0.615590	0.026323	1.767571
32.805343	743.905997	0.620595	0.026270	1.772629
33.193332	749.912089	0.625600	0.026196	1.777708
33.188710	755.966983	0.630605	0.026195	1.782699
33.623627	761.931395	0.635610	0.026112	1.787729
33.978109	767.924770	0.640614	0.026044	1.792744
34.309045	773.990871	0.645619	0.025980	1.797799
34.339704	780.024463	0.650624	0.025973	1.802727
34.634628	786.006397	0.655629	0.025916	1.807675
34.851132	792.027898	0.660634	0.025874	1.812619
35.105084	798.049363	0.665638	0.025825	1.817560
35.168775	804.071246	0.670643	0.025812	1.822434
35.338838	810.079388	0.675648	0.025778	1.827314
35.469581	816.087722	0.680653	0.025752	1.832170
35.839572	822.079898	0.685658	0.025681	1.837068
35.794752	828.159317	0.690662	0.025688	1.841906
36.210021	834.089806	0.695667	0.025609	1.846741
36.487633	840.139253	0.700672	0.025555	1.851619
36.749622	846.158122	0.705677	0.025505	1.856456
36.867457	852.185782	0.710682	0.025481	1.861248
37.016391	858.189528	0.715686	0.025452	1.866017
37.123342	864.200737	0.720691	0.025430	1.870768
37.318470	870.217062	0.725696	0.025392	1.875535
37.489121	876.223042	0.730701	0.025358	1.880275
37.762625	882.233936	0.735706	0.025306	1.885035
37.871976	888.268692	0.740710	0.025284	1.889757
38.126642	894.261011	0.745715	0.025234	1.894474
38.387150	900.259880	0.750720	0.025184	1.899185
38.559391	906.302529	0.755725	0.025150	1.903895
38.682952	912.305555	0.760730	0.025125	1.908550
38.800285	918.330427	0.765734	0.025102	1.913208
39.037964	924.360701	0.770739	0.025056	1.917892
39.030069	930.344751	0.775744	0.025056	1.922463
39.252547	936.359917	0.780749	0.025013	1.927108
39.430885	942.363200	0.785754	0.024978	1.931721
39.563709	948.399446	0.790758	0.024951	1.936337
39.692497	954.391568	0.795763	0.024926	1.940907
39.841057	960.412659	0.800768	0.024896	1.945493
39.856668	966.443391	0.805773	0.024892	1.950041
40.182086	972.396562	0.810778	0.024829	1.954600
40.231813	978.469870	0.815782	0.024818	1.959167
40.572943	984.435082	0.820787	0.024753	1.963719
40.748547	990.480943	0.825792	0.024719	1.968277
40.855517	996.488052	0.830797	0.024697	1.972778
41.148410	1002.491937	0.835802	0.024641	1.977314
41.190479	1008.517776	0.840806	0.024631	1.981792
41.379653	1014.524265	0.845811	0.024594	1.986282
41.479231	1020.537438	0.850816	0.024574	1.990745
41.665326	1026.532808	0.855821	0.024538	1.995207
41.804556	1032.571293	0.860826	0.024510	1.999679
42.052928	1038.556369	0.865830	0.024462	2.004128
42.184531	1044.592288	0.870835	0.024436	2.008576
42.434999	1050.575292	0.875840	0.024387	2.013005
42.699707	1056.621806	0.880845	0.024336	2.017474
42.905969	1062.592987	0.885850	0.024296	2.021864
42.960391	1068.654562	0.890854	0.024284	2.026272
43.120973	1074.628057	0.895859	0.024253	2.030633
43.264586	1080.664531	0.900864	0.024224	2.035026
43.420575	1086.680252	0.905869	0.024193	2.039398
43.527489	1092.680378	0.910874	0.024172	2.043737
43.601733	1098.693851	0.915878	0.024156	2.048068
43.863778	1104.689653	0.920883	0.024106	2.052423
44.029998	1110.725036	0.925888	0.024073	2.056774
43.970295	1116.745178	0.930893	0.024083	2.061050
44.247921	1122.734625	0.935898	0.024029	2.065377
44.492579	1128.726798	0.940902	0.023982	2.069689
44.666532	1134.752271	0.945907	0.023948	2.073999
44.678976	1140.808513	0.950912	0.023944	2.078282
44.748331	1146.783685	0.955917	0.023929	2.082513
44.848398	1152.820797	0.960922	0.023909	2.086787
45.110935	1158.778681	0.965926	0.023858	2.091035
45.338390	1164.805225	0.970931	0.023814	2.095313
45.559870	1170.827589	0.975936	0.023771	2.099579
45.715156	1176.844834	0.980941	0.023740	2.103817
45.802474	1182.849661	0.985946	0.023723	2.108022
45.896286	1188.869084	0.990950	0.023703	2.112229
46.305991	1194.839464	0.995955	0.023625	2.116469
46.558600	1200.873873	1.000960	0.023576	2.120708
46.733945	1206.889580	1.005965	0.023542	2.124907
46.898816	1212.921813	1.010970	0.023509	2.129106
46.883268	1218.932975	1.015974	0.023511	2.133241
47.196537	1224.922136	1.020979	0.023451	2.137430
47.399207	1230.916080	1.025984	0.023411	2.141587
47.580778	1236.961417	1.030989	0.023376	2.145767
47.677114	1242.958984	1.035994	0.023356	2.149886
47.798076	1248.991463	1.040998	0.023332	2.154027
47.999875	1254.965691	1.046003	0.023292	2.158139
48.157913	1261.014806	1.051008	0.023261	2.162284
48.198909	1267.016251	1.056013	0.023252	2.166361
48.475518	1272.998626	1.061018	0.023199	2.170472
48.493483	1279.057491	1.066022	0.023194	2.174568
48.685207	1285.032694	1.071027	0.023156	2.178640
48.914654	1291.036292	1.076032	0.023112	2.182731
49.176724	1297.062508	1.081037	0.023061	2.186837
49.242711	1303.078324	1.086042	0.023047	2.190884
49.523479	1309.080583	1.091046	0.022993	2.194963
49.473362	1315.105940	1.096051	0.023001	2.198975
49.628948	1321.101817	1.101056	0.022970	2.203007
49.917443	1327.109795	1.106061	0.022915	2.207069
50.128221	1333.126235	1.111066	0.022874	2.211112
50.258891	1339.139958	1.116070	0.022848	2.215127
50.392718	1345.136033	1.121075	0.022821	2.219125
50.610666	1351.146103	1.126080	0.022779	2.223143
50.784820	1357.176929	1.131085	0.022745	2.227157
50.974524	1363.185823	1.136090	0.022707	2.231154
51.156113	1369.187689	1.141094	0.022672	2.235137
51.500227	1375.177327	1.146099	0.022606	2.239140
51.453625	1381.237860	1.151104	0.022613	2.243097
51.692859	1387.213148	1.156109	0.022567	2.247054
51.826273	1393.235935	1.161114	0.022540	2.251012
52.087995	1399.240806	1.166118	0.022490	2.254979
52.186584	1405.275060	1.171123	0.022470	2.258923
52.343012	1411.243854	1.176128	0.022439	2.262829
52.531648	1417.283288	1.181133	0.022402	2.266782
52.688658	1423.274620	1.186138	0.022371	2.270690
52.943804	1429.287326	1.191142	0.022322	2.274626
53.037874	1435.298786	1.196147	0.022302	2.278520
53.174693	1441.322433	1.201152	0.022275	2.282424
53.565251	1447.292400	1.206157	0.022201	2.286342
53.667672	1453.338184	1.211162	0.022180	2.290239
53.906652	1459.328522	1.216166	0.022133	2.294124
54.017512	1465.372223	1.221171	0.022111	2.298009
54.240396	1471.335458	1.226176	0.022068	2.301859
54.309721	1477.422338	1.231181	0.022053	2.305750
54.313706	1483.387605	1.236186	0.022051	2.309543
54.458264	1489.406722	1.241190	0.022023	2.313393
54.624170	1495.394159	1.246195	0.021990	2.317221
54.830509	1501.424701	1.251200	0.021950	2.321079
54.890971	1507.421166	1.256205	0.021937	2.324879
55.048428	1513.437560	1.261210	0.021906	2.328704
55.454003	1519.424465	1.266214	0.021828	2.332557
55.624523	1525.471139	1.271219	0.021795	2.336392
55.693686	1531.463725	1.276224	0.021780	2.340166
55.931239	1537.472107	1.281229	0.021734	2.343978
56.235439	1543.447764	1.286234	0.021676	2.347777
56.260501	1549.516593	1.291238	0.021669	2.351571
56.521526	1555.497468	1.296243	0.021619	2.355352
56.547605	1561.534147	1.301248	0.021613	2.359114
56.876993	1567.503305	1.306253	0.021549	2.362890
56.930055	1573.561592	1.311258	0.021538	2.366659
57.011375	1579.551677	1.316262	0.021521	2.370385
57.293341	1585.542172	1.321267	0.021467	2.374147
57.391502	1591.555958	1.326272	0.021447	2.377879
57.541221	1597.585415	1.331277	0.021417	2.381626
57.692851	1603.594671	1.336282	0.021387	2.385355
57.824869	1609.581752	1.341286	0.021361	2.389060
58.116079	1615.581313	1.346291	0.021305	2.392799
58.335151	1621.626379	1.351296	0.021262	2.396546
58.438427	1627.624750	1.356301	0.021241	2.400235
58.612130	1633.633176	1.361306	0.021207	2.403939
58.649432	1639.646697	1.366310	0.021199	2.407612
58.969178	1645.643025	1.371315	0.021137	2.411326
59.014388	1651.692072	1.376320	0.021127	2.415012
59.198309	1657.650254	1.381325	0.021091	2.418664
59.174758	1663.697711	1.386330	0.021094	2.422324
59.368637	1669.684625	1.391334	0.021057	2.425985
59.479920	1675.693461	1.396339	0.021034	2.429637
59.640482	1681.720999	1.401344	0.021003	2.433305
59.754510	1687.718720	1.406349	0.020980	2.436940
59.995433	1693.734027	1.411354	0.020933	2.440605
60.008838	1699.760846	1.416358	0.020929	2.444226
60.027084	1705.745020	1.421363	0.020924	2.447818
60.384399	1711.738338	1.426368	0.020856	2.451476
60.550179	1717.791928	1.431373	0.020823	2.455128
60.657542	1723.756410	1.436378	0.020801	2.458709
60.846250	1729.791572	1.441382	0.020764	2.462343
60.965392	1735.794343	1.446387	0.020741	2.465939
61.141077	1741.817589	1.451392	0.020706	2.469553
61.291681	1747.806866	1.456397	0.020676	2.473136
61.369899	1753.842646	1.461402	0.020660	2.476728
61.430250	1759.843673	1.466406	0.020647	2.480291
61.451092	1765.859825	1.471411	0.020642	2.483850
61.622406	1771.836449	1.476416	0.020608	2.487409
61.896269	1777.860442	1.481421	0.020555	2.491010
62.122645	1783.877394	1.486426	0.020511	2.494594
62.337149	1789.867394	1.491430	0.020470	2.498153
62.484545	1795.883788	1.496435	0.020441	2.501711
62.603713	1801.916109	1.501440	0.020417	2.505267
62.730173	1807.889585	1.506445	0.020392	2.508786
63.076857	1813.921916	1.511450	0.020325	2.512375
63.010065	1819.935769	1.516454	0.020336	2.515870
63.219473	1825.945629	1.521459	0.020295	2.519411
63.347786	1831.942960	1.526464	0.020270	2.522923
63.556154	1837.953364	1.531469	0.020229	2.526454
63.589172	1843.992401	1.536474	0.020221	2.529963
63.764244	1849.967468	1.541478	0.020187	2.533457
63.837692	1855.973861	1.546483	0.020172	2.536945
63.991661	1862.003267	1.551488	0.020141	2.540457
64.082730	1868.013133	1.556493	0.020123	2.543941
64.209337	1874.003361	1.561498	0.020098	2.547415
64.354287	1880.021228	1.566502	0.020069	2.550904
64.652223	1886.036186	1.571507	0.020012	2.554414
64.859005	1892.006632	1.576512	0.019971	2.557878
65.009071	1898.068653	1.581517	0.019942	2.561378
65.120789	1904.072731	1.586522	0.019919	2.564834
65.317021	1910.050019	1.591526	0.019881	2.568285
65.444110	1916.064177	1.596531	0.019856	2.571740
65.528414	1922.161599	1.601536	0.019838	2.575230
65.613255	1928.098648	1.606541	0.019821	2.578624
65.691726	1934.120375	1.611546	0.019805	2.582061
65.683850	1940.129582	1.616550	0.019805	2.585470
65.760774	1946.125997	1.621555	0.019789	2.588883
65.841101	1952.129849	1.626560	0.019772	2.592296
65.930454	1958.159243	1.631565	0.019754	2.595721
65.978612	1964.151688	1.636570	0.019743	2.599113
66.238647	1970.153790	1.641574	0.019693	2.602544
66.360079	1976.135159	1.646579	0.019669	2.605933
66.617722	1982.191905	1.651584	0.019619	2.609386
66.625815	1988.201032	1.656589	0.019616	2.612762
66.752642	1994.182156	1.661594	0.019591	2.616139
66.869890	2000.201470	1.666598	0.019567	2.619532
67.102270	2006.209715	1.671603	0.019522	2.622934
67.133951	2012.217203	1.676608	0.019515	2.626297
67.264589	2018.245818	1.681613	0.019489	2.629684
67.289292	2024.241322	1.686618	0.019483	2.633029
67.503840	2030.237925	1.691622	0.019441	2.636404
67.582582	2036.269918	1.696627	0.019424	2.639771
67.808816	2042.256516	1.701632	0.019381	2.643134
67.876494	2048.256265	1.706637	0.019366	2.646473
68.079253	2054.296244	1.711642	0.019327	2.649853
68.151507	2060.295225	1.716646	0.019312	2.653183
68.319193	2066.297668	1.721651	0.019279	2.656528
68.360135	2072.305902	1.726656	0.019270	2.659849
68.846375	2078.291733	1.731661	0.019177	2.663232
69.023746	2084.322756	1.736666	0.019142	2.666581
69.258622	2090.325170	1.741670	0.019097	2.669920
69.134052	2096.372817	1.746675	0.019119	2.673218
69.279116	2102.353761	1.751680	0.019090	2.676522
69.382244	2108.371372	1.756685	0.019069	2.679834
69.581908	2114.372987	1.761690	0.019030	2.683150
69.704347	2120.364695	1.766694	0.019006	2.686444
69.827835	2126.408182	1.771699	0.018981	2.689761
69.867653	2132.396623	1.776704	0.018972	2.693031
70.231186	2138.391778	1.781709	0.018902	2.696355
70.237919	2144.421478	1.786714	0.018899	2.699633
70.349200	2150.432053	1.791718	0.018877	2.702915
70.547656	2156.418072	1.796723	0.018838	2.706194
70.793742	2162.440989	1.801728	0.018791	2.709497
71.017997	2168.439564	1.806733	0.018747	2.712779
71.005039	2174.482796	1.811738	0.018748	2.716041
71.145588	2180.467311	1.816742	0.018720	2.719294
71.217041	2186.483012	1.821747	0.018705	2.722547
71.296804	2192.480146	1.826752	0.018689	2.725789
71.606924	2198.501425	1.831757	0.018629	2.729078
71.684601	2204.489303	1.836762	0.018613	2.732306
71.748169	2210.530074	1.841766	0.018600	2.735556
71.824711	2216.526208	1.846771	0.018584	2.738781
71.981043	2222.533196	1.851776	0.018553	2.742021
72.161788	2228.499455	1.856781	0.018518	2.745239
72.340753	2234.554158	1.861786	0.018483	2.748501
72.501541	2240.543317	1.866790	0.018451	2.751721
72.670474	2246.571091	1.871795	0.018418	2.754958
72.602898	2252.583291	1.876800	0.018429	2.758145
72.818504	2258.575543	1.881805	0.018387	2.761364
72.994818	2264.575365	1.886810	0.018352	2.764577
73.178338	2270.601266	1.891814	0.018317	2.767801
73.403918	2276.595895	1.896819	0.018273	2.771012
73.684859	2282.614723	1.901824	0.018218	2.774241
73.708732	2288.618712	1.906829	0.018213	2.777416
73.874466	2294.633005	1.911834	0.018180	2.780616
73.948194	2300.647854	1.916838	0.018165	2.783797
74.218981	2306.628821	1.921843	0.018112	2.786990
74.268691	2312.646596	1.926848	0.018102	2.790162
74.476719	2318.697847	1.931853	0.018061	2.793373
74.605421	2324.637196	1.936858	0.018035	2.796510
74.790567	2330.691659	1.941862	0.017999	2.799712
74.914655	2336.689659	1.946867	0.017974	2.802871
75.187645	2342.690394	1.951872	0.017922	2.806052
75.349552	2348.698877	1.956877	0.017890	2.809215
75.635790	2354.722632	1.961882	0.017835	2.812403
75.689481	2360.707534	1.966886	0.017823	2.815530
76.015241	2366.736605	1.971891	0.017760	2.818720
76.135382	2372.731437	1.976896	0.017736	2.821855
76.551489	2378.715980	1.981901	0.017657	2.825029
76.690318	2384.772895	1.986906	0.017629	2.828193
76.853986	2390.771168	1.991910	0.017597	2.831326
76.948336	2396.747379	1.996915	0.017578	2.834434
77.148698	2402.796171	2.001920	0.017539	2.837592
77.307617	2408.773198	2.006925	0.017507	2.840704
77.548348	2414.815980	2.011930	0.017461	2.843858
77.596470	2420.800365	2.016934	0.017450	2.846949
77.806766	2426.827799	2.021939	0.017409	2.850084
77.872815	2432.830212	2.026944	0.017395	2.853180
78.101258	2438.821738	2.031949	0.017351	2.856293
78.037438	2444.859396	2.036954	0.017362	2.859380
78.303035	2450.862586	2.041958	0.017310	2.862498
78.426613	2456.838375	2.046963	0.017286	2.865576
78.640652	2462.870637	2.051968	0.017244	2.868693
78.746498	2468.872285	2.056973	0.017223	2.871775
78.874989	2474.892519	2.061978	0.017197	2.874866
78.984269	2480.892689	2.066982	0.017175	2.877941
79.229116	2486.884420	2.071987	0.017128	2.881030
79.568673	2492.874779	2.076992	0.017062	2.884129
79.632217	2498.958276	2.081997	0.017049	2.887229
79.692904	2504.911949	2.087002	0.017036	2.890259
79.789315	2510.961490	2.092006	0.017017	2.893341
79.920969	2516.924786	2.097011	0.016990	2.896381
80.107780	2522.963512	2.102016	0.016954	2.899464
80.064003	2528.971846	2.107021	0.016961	2.902493
80.362108	2534.956328	2.112026	0.016903	2.905560
80.382536	2540.975784	2.117030	0.016898	2.908598
80.621722	2546.982365	2.122035	0.016851	2.911660
80.911875	2552.965082	2.127040	0.016795	2.914714
81.204837	2558.996290	2.132045	0.016739	2.917791
81.348587	2564.997710	2.137050	0.016711	2.920826
81.728792	2571.001822	2.142054	0.016638	2.923895
81.865157	2577.014510	2.147059	0.016611	2.926928
82.361684	2583.021425	2.152064	0.016516	2.930010
82.344630	2589.050769	2.157069	0.016518	2.933022
82.639573	2595.028397	2.162074	0.016461	2.936052
82.745782	2601.055552	2.167078	0.016439	2.939076
82.977083	2607.077581	2.172083	0.016395	2.942112
83.116044	2613.054136	2.177088	0.016367	2.945109
83.265046	2619.114219	2.182093	0.016338	2.948146
83.369716	2625.071413	2.187098	0.016316	2.951122
83.717971	2631.075285	2.192102	0.016250	2.954154
83.644015	2637.129998	2.197107	0.016262	2.957146
83.997987	2643.105682	2.202112	0.016194	2.960159
84.049410	2649.115446	2.207117	0.016183	2.963140
84.339228	2655.135535	2.212122	0.016127	2.966160
84.359120	2661.142380	2.217126	0.016122	2.969129
84.580968	2667.166850	2.222131	0.016079	2.972135
84.663363	2673.135428	2.227136	0.016062	2.975089
84.977085	2679.160574	2.232141	0.016001	2.978102
85.201806	2685.150088	2.237146	0.015958	2.981081
85.299933	2691.189978	2.242150	0.015938	2.984064
85.288453	2697.215945	2.247155	0.015939	2.987020
85.590354	2703.180934	2.252160	0.015880	2.989990
85.637767	2709.205768	2.257165	0.015870	2.992948
85.764950	2715.212770	2.262170	0.015845	2.995907
85.892551	2721.212886	2.267174	0.015819	2.998860
86.188919	2727.238343	2.272179	0.015762	3.001846
86.267203	2733.214676	2.277184	0.015746	3.004774
86.429740	2739.272367	2.282189	0.015714	3.007751
86.478196	2745.245076	2.287194	0.015703	3.010667
86.898245	2751.236883	2.292198	0.015623	3.013643
86.908417	2757.261718	2.297203	0.015620	3.016573
87.178878	2763.287698	2.302208	0.015567	3.019538
87.310632	2769.297893	2.307213	0.015541	3.022473
87.383595	2775.287004	2.312218	0.015526	3.025386
87.528115	2781.291652	2.317222	0.015497	3.028314
87.799253	2787.316931	2.322227	0.015445	3.031268
87.832893	2793.307512	2.327232	0.015437	3.034167
87.948388	2799.345572	2.332237	0.015414	3.037099
87.974949	2805.337523	2.337242	0.015408	3.039993
88.177994	2811.342578	2.342246	0.015368	3.042915
88.276871	2817.340884	2.347251	0.015348	3.045817
88.567557	2823.386954	2.352256	0.015292	3.048766
88.705430	2829.360710	2.357261	0.015265	3.051656
88.850401	2835.362839	2.362266	0.015236	3.054557
88.843684	2841.390154	2.367270	0.015236	3.057447
88.987838	2847.410583	2.372275	0.015207	3.060351
88.975480	2853.368787	2.377280	0.015208	3.063201
89.201572	2859.428139	2.382285	0.015164	3.066131
89.393616	2865.392305	2.387290	0.015127	3.069007
89.602401	2871.460651	2.392294	0.015086	3.071933
89.505063	2877.404916	2.397299	0.015103	3.074753
89.631246	2883.450770	2.402304	0.015078	3.077651
89.646756	2889.448966	2.407309	0.015073	3.080508
89.953153	2895.449365	2.412314	0.015014	3.083404
90.067221	2901.470655	2.417318	0.014991	3.086280
90.284467	2907.485768	2.422323	0.014949	3.089165
90.225149	2913.504775	2.427328	0.014959	3.092011
90.442885	2919.463873	2.432333	0.014916	3.094864
90.689670	2925.469581	2.437338	0.014869	3.097741
90.913629	2931.520071	2.442342	0.014825	3.100633
91.007520	2937.488795	2.447347	0.014806	3.103465
91.141673	2943.537941	2.452352	0.014779	3.106339
91.292802	2949.503676	2.457357	0.014749	3.109173
91.460193	2955.576936	2.462362	0.014717	3.112057
91.426066	2961.527651	2.467366	0.014721	3.114853
91.604678	2967.568374	2.472371	0.014686	3.117718
91.835118	2973.553761	2.477376	0.014642	3.120562
92.093856	2979.549133	2.482381	0.014592	3.123411
92.008630	2985.604433	2.487386	0.014606	3.126239
92.066078	2991.598934	2.492390	0.014594	3.129055
92.273136	2997.582665	2.497395	0.014554	3.131884
92.407330	3003.590459	2.502400	0.014527	3.134712
92.437353	3009.593946	2.507405	0.014520	3.137522
92.596106	3015.643022	2.512410	0.014489	3.140367
92.689675	3021.610135	2.517414	0.014469	3.143163
92.811392	3027.646160	2.522419	0.014445	3.145992
92.992727	3033.618729	2.527424	0.014410	3.148797
93.037044	3039.674746	2.532429	0.014400	3.151620
93.220827	3045.619841	2.537434	0.014364	3.154407
93.378619	3051.682770	2.542438	0.014333	3.157244
93.295674	3057.678217	2.547443	0.014347	3.160014
93.457147	3063.670807	2.552448	0.014315	3.162813
93.493320	3069.692229	2.557453	0.014307	3.165606
93.793998	3075.692475	2.562458	0.014249	3.168423
93.779601	3081.718326	2.567462	0.014250	3.171206
93.855157	3087.693053	2.572467	0.014234	3.173976
93.967368	3093.717288	2.577472	0.014212	3.176771
94.191149	3099.725547	2.582477	0.014168	3.179571
94.118953	3105.731668	2.587482	0.014180	3.182328
94.436393	3111.741302	2.592486	0.014119	3.185135
94.558070	3117.744195	2.597491	0.014095	3.187912
94.681584	3123.778375	2.602496	0.014070	3.190700
94.816329	3129.733701	2.607501	0.014044	3.193452
94.998872	3135.800357	2.612506	0.014008	3.196258
95.181655	3141.749005	2.617510	0.013972	3.199008
95.442082	3147.784273	2.622515	0.013922	3.201805
95.609273	3153.802567	2.627520	0.013889	3.204580
95.462353	3159.819920	2.632525	0.013915	3.207311
95.662726	3165.805672	2.637530	0.013876	3.210071
95.810271	3171.822779	2.642534	0.013847	3.212835
95.906386	3177.811233	2.647539	0.013827	3.215578
95.878949	3183.838848	2.652544	0.013831	3.218319
96.162525	3189.840264	2.657549	0.013776	3.221087
96.325474	3195.832721	2.662554	0.013744	3.223833
96.436417	3201.867239	2.667558	0.013722	3.226589
96.628581	3207.883782	2.672563	0.013684	3.229345
96.862458	3213.835125	2.677568	0.013639	3.232074
96.885569	3219.900008	2.682573	0.013633	3.234825
96.932360	3225.878459	2.687578	0.013623	3.237538
97.085961	3231.921273	2.692582	0.013592	3.240291
97.146763	3237.896231	2.697587	0.013580	3.242999
97.464186	3243.918672	2.702592	0.013519	3.245760
97.305898	3249.941925	2.707597	0.013547	3.248457
97.516607	3255.930994	2.712602	0.013506	3.251184
97.643784	3261.912891	2.717606	0.013480	3.253895
97.822785	3267.945501	2.722611	0.013445	3.256633
97.759970	3273.959555	2.727616	0.013456	3.259330
97.991117	3279.950767	2.732621	0.013411	3.262051
97.931090	3285.980275	2.737626	0.013421	3.264750
98.252644	3291.970664	2.742630	0.013359	3.267478
98.392551	3297.993294	2.747635	0.013331	3.270195
98.579359	3303.975653	2.752640	0.013294	3.272898
98.769106	3310.010391	2.757645	0.013257	3.275622
98.912829	3316.012971	2.762650	0.013229	3.278324
98.864113	3322.021125	2.767654	0.013237	3.281002
99.126428	3328.019091	2.772659	0.013186	3.283712
99.202134	3334.018104	2.777664	0.013170	3.286397
99.426181	3340.041195	2.782669	0.013127	3.289109
99.319757	3346.059436	2.787674	0.013145	3.291775
99.574025	3352.053172	2.792678	0.013096	3.294474
99.529551	3358.033511	2.797683	0.013103	3.297126
99.765748	3364.093643	2.802688	0.013057	3.299848
99.946936	3370.044885	2.807693	0.013021	3.302511
100.004473	3376.114682	2.812698	0.013009	3.305210
100.041796	3382.077428	2.817702	0.013001	3.307856
100.335393	3388.099988	2.822707	0.012944	3.310559
100.376729	3394.095347	2.827712	0.012935	3.313216
100.507120	3400.128504	2.832717	0.012909	3.315899
100.574404	3406.117124	2.837722	0.012895	3.318552
100.723706	3412.127228	2.842726	0.012865	3.321223
100.679003	3418.142743	2.847731	0.012872	3.323869
100.906100	3424.144381	2.852736	0.012828	3.326542
100.972558	3430.152622	2.857741	0.012814	3.329195
101.160512	3436.138117	2.862746	0.012777	3.331851
101.183133	3442.165445	2.867750	0.012772	3.334502
101.319769	3448.179968	2.872755	0.012745	3.337160
101.491826	3454.189476	2.877760	0.012711	3.339819
101.633386	3460.181027	2.882765	0.012683	3.342463
101.929984	3466.199768	2.887770	0.012626	3.345136
102.051716	3472.205135	2.892774	0.012601	3.347780
102.097275	3478.226528	2.897779	0.012591	3.350419
102.208436	3484.209426	2.902784	0.012569	3.353047
102.375213	3490.230955	2.907789	0.012536	3.355697
102.664069	3496.235568	2.912794	0.012480	3.358353
102.671620	3502.232267	2.917798	0.012477	3.360968
102.911876	3508.265090	2.922803	0.012431	3.363626
102.887670	3514.257105	2.927808	0.012434	3.366231
103.212367	3520.289098	2.932813	0.012372	3.368894
103.213907	3526.259681	2.937818	0.012370	3.371490
103.489914	3532.289713	2.942822	0.012317	3.374142
103.410641	3538.280500	2.947827	0.012330	3.376732
103.729665	3544.311847	2.952832	0.012269	3.379386
103.567032	3550.287405	2.957837	0.012298	3.381956
103.872650	3556.327002	2.962842	0.012239	3.384607
103.975093	3562.296951	2.967846	0.012218	3.387202
104.355114	3568.342290	2.972851	0.012145	3.389861
104.174836	3574.327358	2.977856	0.012178	3.392425
104.344144	3580.366629	2.982861	0.012144	3.395051
104.542021	3586.338345	2.987866	0.012106	3.397651
104.708025	3592.374246	2.992870	0.012073	3.400271
104.618299	3598.356912	2.997875	0.012088	3.402837
104.933901	3604.370444	3.002880	0.012028	3.405462
104.950226	3610.367195	3.007885	0.012023	3.408042
105.086439	3616.396618	3.012890	0.011996	3.410649
105.077559	3622.393457	3.017894	0.011996	3.413222
105.253573	3628.394305	3.022899	0.011962	3.415817
105.515870	3634.416213	3.027904	0.011911	3.418430
105.640279	3640.426710	3.032909	0.011886	3.421019
105.644057	3646.410663	3.037914	0.011884	3.423580
105.735145	3652.455519	3.042918	0.011865	3.426176
106.170190	3658.410877	3.047923	0.011782	3.428772
106.475007	3664.441703	3.052928	0.011724	3.431383
106.600638	3670.462584	3.057933	0.011699	3.433967
106.957693	3676.456342	3.062938	0.011630	3.436564
107.090491	3682.473532	3.067942	0.011604	3.439143
107.180889	3688.489271	3.072947	0.011585	3.441715
107.372910	3694.475971	3.077952	0.011548	3.444284
107.916530	3700.463252	3.082957	0.011444	3.446892
108.053713	3706.525622	3.087962	0.011417	3.449483
108.336718	3712.502889	3.092966	0.011362	3.452053
108.328384	3718.528675	3.097971	0.011363	3.454607
108.477376	3724.502874	3.102976	0.011333	3.457157
108.651573	3730.551407	3.107981	0.011299	3.459738
108.765850	3736.541854	3.112986	0.011276	3.462286
108.863943	3742.538211	3.117990	0.011256	3.464833
108.967473	3748.551599	3.122995	0.011235	3.467386
109.097751	3754.547428	3.128000	0.011209	3.469933
109.214210	3760.584041	3.133005	0.011186	3.472493
109.137546	3766.597466	3.138010	0.011199	3.475020
109.397001	3772.581341	3.143014	0.011149	3.477570
109.526859	3778.569929	3.148019	0.011123	3.480106
109.648416	3784.614937	3.153024	0.011098	3.482663
109.666078	3790.597422	3.158029	0.011094	3.485180
109.825661	3796.638112	3.163034	0.011062	3.487736
109.915243	3802.612179	3.168038	0.011044	3.490254
110.026806	3808.635307	3.173043	0.011022	3.492793
110.045680	3814.631230	3.178048	0.011016	3.495308
110.308267	3820.644871	3.183053	0.010966	3.497857
110.265896	3826.641410	3.188058	0.010972	3.500362
110.438180	3832.676317	3.193062	0.010938	3.502905
110.590629	3838.661251	3.198067	0.010908	3.505424
110.878336	3844.684513	3.203072	0.010853	3.507972
110.939882	3850.677253	3.208077	0.010840	3.510480
111.094144	3856.701096	3.213082	0.010809	3.513009
111.012839	3862.695876	3.218086	0.010823	3.515498
111.233399	3868.701680	3.223091	0.010780	3.518024
111.374500	3874.691174	3.228096	0.010752	3.520532
111.639853	3880.741864	3.233101	0.010701	3.523078
111.725306	3886.721951	3.238106	0.010683	3.525572
112.003566	3892.753277	3.243110	0.010630	3.528108
112.094918	3898.735929	3.248115	0.010611	3.530600
112.266278	3904.766256	3.253120	0.010577	3.533120
112.388937	3910.743879	3.258125	0.010553	3.535610
112.376326	3916.795059	3.263130	0.010554	3.538114
112.437145	3922.742627	3.268134	0.010541	3.540582
112.681008	3928.795905	3.273139	0.010494	3.543112
112.716904	3934.775988	3.278144	0.010486	3.545587
112.881797	3940.811405	3.283149	0.010453	3.548097
112.853924	3946.790433	3.288154	0.010457	3.550561
113.007961	3952.822191	3.293158	0.010426	3.553064
113.152506	3958.803196	3.298163	0.010398	3.555545
113.315318	3964.839730	3.303168	0.010366	3.558048
113.456297	3970.798340	3.308173	0.010338	3.560515
113.617447	3976.858349	3.313178	0.010306	3.563024
113.625291	3982.853888	3.318182	0.010303	3.565488
113.799190	3988.871963	3.323187	0.010269	3.567978
113.790304	3994.838439	3.328192	0.010269	3.570425
113.906749	4000.885528	3.333197	0.010246	3.572917
114.116425	4006.845166	3.338202	0.010205	3.575381
114.116432	4012.919351	3.343206	0.010204	3.577868
114.304756	4018.855664	3.348211	0.010167	3.580318
114.517588	4024.930977	3.353216	0.010125	3.582825
114.555252	4030.890992	3.358221	0.010117	3.585264
114.794362	4036.915945	3.363226	0.010070	3.587750
114.831156	4042.900527	3.368230	0.010062	3.590195
114.994459	4048.939384	3.373235	0.010030	3.592675
114.952086	4054.952308	3.378240	0.010036	3.595121
115.050620	4060.959091	3.383245	0.010016	3.597577
115.252578	4066.916749	3.388250	0.009977	3.600023
115.552197	4072.970417	3.393254	0.009919	3.602516
115.581382	4078.963384	3.398259	0.009912	3.604955
115.876947	4084.972061	3.403264	0.009855	3.607426
115.815356	4090.980138	3.408269	0.009865	3.609857
116.038080	4096.951619	3.413274	0.009822	3.612303
116.050430	4102.946128	3.418278	0.009818	3.614733
116.242583	4108.965484	3.423283	0.009781	3.617191
116.203098	4114.952381	3.428288	0.009787	3.619610
116.387164	4120.978266	3.433293	0.009751	3.622066
116.627566	4126.971978	3.438298	0.009704	3.624514
116.799849	4132.997698	3.443302	0.009670	3.626965
116.784396	4138.986029	3.448307	0.009672	3.629381
117.009821	4144.996833	3.453312	0.009628	3.631829
116.913657	4151.021227	3.458317	0.009644	3.634247
117.036553	4157.016567	3.463322	0.009620	3.636674
117.387783	4162.989127	3.468326	0.009553	3.639115
117.678263	4169.029814	3.473331	0.009497	3.641575
117.809383	4175.044678	3.478336	0.009470	3.644007
117.919354	4181.041129	3.483341	0.009448	3.646427
117.965072	4187.076974	3.488346	0.009438	3.648854
118.100814	4193.054573	3.493350	0.009411	3.651266
118.118010	4199.072388	3.498355	0.009407	3.653681
118.294111	4205.076394	3.503360	0.009372	3.656104
118.415829	4211.075154	3.508365	0.009348	3.658519
118.566219	4217.058805	3.513370	0.009318	3.660928
118.633946	4223.135031	3.518374	0.009304	3.663365
118.723571	4229.096339	3.523379	0.009286	3.665756
118.893415	4235.110465	3.528384	0.009252	3.668175
119.090414	4241.097370	3.533389	0.009214	3.670584
119.106989	4247.123901	3.538394	0.009209	3.672989
119.212304	4253.148744	3.543398	0.009188	3.675400
119.239262	4259.144465	3.548403	0.009181	3.677791
119.436538	4265.133187	3.553408	0.009143	3.680195
119.671849	4271.158532	3.558413	0.009097	3.682615
119.873006	4277.166098	3.563418	0.009058	3.685023
120.149077	4283.162364	3.568422	0.009005	3.687433
120.063706	4289.181599	3.573427	0.009019	3.689814
120.186726	4295.192894	3.578432	0.008995	3.692211
120.484286	4301.172817	3.583437	0.008937	3.694612
120.633051	4307.188630	3.588442	0.008908	3.697010
120.909783	4313.183510	3.593446	0.008855	3.699411
121.132249	4319.224737	3.598451	0.008811	3.701824
121.241759	4325.212832	3.603456	0.008789	3.704203
121.618821	4331.215422	3.608461	0.008717	3.706613
121.805485	4337.237561	3.613466	0.008680	3.709009
121.936849	4343.245367	3.618470	0.008654	3.711393
122.123310	4349.231152	3.623475	0.008618	3.713773
122.333309	4355.252103	3.628480	0.008577	3.716167
122.418741	4361.302463	3.633485	0.008559	3.718558
122.438264	4367.259298	3.638490	0.008554	3.720905
122.619702	4373.284259	3.643494	0.008519	3.723293
122.838718	4379.267857	3.648499	0.008476	3.725667
122.918169	4385.302807	3.653504	0.008460	3.728045
123.018589	4391.283815	3.658509	0.008439	3.730403
123.191934	4397.297887	3.663514	0.008405	3.732780
123.337634	4403.294220	3.668518	0.008377	3.735146
123.293638	4409.348141	3.673523	0.008383	3.737513
123.535269	4415.282402	3.678528	0.008337	3.739861
123.677504	4421.360617	3.683533	0.008308	3.742254
123.862680	4427.333692	3.688538	0.008272	3.744608
124.015200	4433.373216	3.693542	0.008242	3.746984
124.203497	4439.334835	3.698547	0.008205	3.749331
124.233372	4445.353930	3.703552	0.008198	3.751683
124.414249	4451.375494	3.708557	0.008163	3.754050
124.649642	4457.390385	3.713562	0.008117	3.756418
124.726737	4463.351332	3.718566	0.008101	3.758748
124.923646	4469.426168	3.723571	0.008063	3.761133
125.103749	4475.391205	3.728576	0.008027	3.763471
125.197573	4481.430757	3.733581	0.008008	3.765829
125.238922	4487.416627	3.738586	0.007999	3.768159
125.310575	4493.442826	3.743590	0.007984	3.770507
125.458141	4499.419135	3.748595	0.007955	3.772841
125.641485	4505.444974	3.753600	0.007919	3.775196
125.714583	4511.462865	3.758605	0.007904	3.777536
125.834651	4517.425982	3.763610	0.007880	3.779858
125.987840	4523.478086	3.768614	0.007850	3.782216
126.155993	4529.466528	3.773619	0.007817	3.784549
126.211837	4535.492521	3.778624	0.007805	3.786885
126.376695	4541.465888	3.783629	0.007772	3.789209
126.471795	4547.501686	3.788634	0.007753	3.791549
126.678083	4553.473012	3.793638	0.007713	3.793874
126.808357	4559.531045	3.798643	0.007687	3.796223
126.749274	4565.487854	3.803648	0.007696	3.798514
126.927378	4571.534975	3.808653	0.007661	3.800861
127.098346	4577.534973	3.813658	0.007628	3.803187
127.076095	4583.560081	3.818662	0.007631	3.805503
127.328117	4589.540051	3.823667	0.007582	3.807827
127.410408	4595.530270	3.828672	0.007565	3.810137
127.513049	4601.579273	3.833677	0.007544	3.812470
127.603703	4607.543884	3.838682	0.007526	3.814768
127.716964	4613.592814	3.843686	0.007503	3.817099
127.939575	4619.544229	3.848691	0.007460	3.819402
127.914352	4625.610528	3.853696	0.007463	3.821724
128.137392	4631.566772	3.858701	0.007420	3.824026
128.241894	4637.631151	3.863706	0.007398	3.826356
128.320205	4643.596337	3.868710	0.007382	3.828645
128.443584	4649.619346	3.873715	0.007358	3.830959
128.592366	4655.625058	3.878720	0.007328	3.833267
128.544809	4661.641246	3.883725	0.007336	3.835559
128.683571	4667.620737	3.888730	0.007308	3.837854
128.814932	4673.640916	3.893734	0.007282	3.840161
128.910913	4679.653834	3.898739	0.007262	3.842462
129.127672	4685.658676	3.903744	0.007220	3.844769
129.263994	4691.657497	3.908749	0.007193	3.847065
129.232301	4697.748114	3.913754	0.007198	3.849378
129.187999	4703.691037	3.918758	0.007205	3.851633
129.633502	4709.654304	3.923763	0.007119	3.853941
129.720142	4715.707857	3.928768	0.007102	3.856247
130.024523	4721.686934	3.933773	0.007043	3.858544
130.189824	4727.699718	3.938778	0.007011	3.860840
130.459549	4733.716925	3.943782	0.006958	3.863146
130.537504	4739.722999	3.948787	0.006942	3.865428
130.661879	4745.741917	3.953792	0.006918	3.867718
130.742068	4751.754636	3.958797	0.006901	3.870000
130.785419	4757.736999	3.963802	0.006891	3.872266
130.905595	4763.737170	3.968806	0.006867	3.874544
131.043572	4769.774620	3.973811	0.006840	3.876837
131.080358	4775.750215	3.978816	0.006832	3.879096
131.235277	4781.789084	3.983821	0.006801	3.881388
131.515658	4787.762083	3.988826	0.006747	3.883666
131.579306	4793.808912	3.993830	0.006734	3.885950
131.672861	4799.784040	3.998835	0.006714	3.888208
131.687965	4805.814133	4.003840	0.006710	3.890479
131.807784	4811.796559	4.008845	0.006686	3.892740
131.983457	4817.833755	4.013850	0.006652	3.895025
132.122360	4823.824481	4.018854	0.006624	3.897288
132.218291	4829.811711	4.023859	0.006605	3.899545
132.420475	4835.834119	4.028864	0.006565	3.901823
132.380497	4841.872178	4.033869	0.006571	3.904083
132.654106	4847.856955	4.038874	0.006518	3.906351
132.690602	4853.836010	4.043878	0.006510	3.908594
132.823239	4859.863674	4.048883	0.006484	3.910863
132.864816	4865.878508	4.053888	0.006474	3.913117
133.135293	4871.882475	4.058893	0.006422	3.915386
133.135826	4877.863271	4.063898	0.006421	3.917621
133.324523	4883.903278	4.068902	0.006384	3.919894
133.375354	4889.918193	4.073907	0.006373	3.922144
133.628300	4895.892090	4.078912	0.006324	3.924395
133.723254	4901.942741	4.083917	0.006304	3.926659
133.944407	4907.900362	4.088922	0.006261	3.928899
133.912116	4913.971883	4.093926	0.006266	3.931157
134.133201	4919.909659	4.098931	0.006223	3.933387
134.198627	4925.963832	4.103936	0.006209	3.935645
134.239933	4931.949175	4.108941	0.006200	3.937873
134.399262	4937.970989	4.113946	0.006169	3.940125
134.616069	4943.966571	4.118950	0.006127	3.942371
134.740653	4949.972604	4.123955	0.006102	3.944611
134.905424	4955.990174	4.128960	0.006069	3.946857
135.007961	4961.974739	4.133965	0.006049	3.949085
135.039004	4968.000886	4.138970	0.006041	3.951320
135.109051	4974.002591	4.143974	0.006027	3.953549
135.338870	4980.005875	4.148979	0.005982	3.955791
135.540560	4986.013466	4.153984	0.005943	3.958030
135.659187	4992.032519	4.158989	0.005919	3.960266
135.668892	4998.046308	4.163994	0.005916	3.962488
135.761732	5004.051305	4.168998	0.005897	3.964714
135.835713	5010.044739	4.174003	0.005881	3.966932
136.147386	5016.016397	4.179008	0.005821	3.969162
136.205988	5022.065217	4.184013	0.005809	3.971396
136.194461	5028.066301	4.189018	0.005810	3.973606
136.288639	5034.086360	4.194022	0.005790	3.975831
136.468670	5040.062326	4.199027	0.005755	3.978046
136.439622	5046.115855	4.204032	0.005759	3.980269
136.708084	5052.056450	4.209037	0.005707	3.982476
136.752206	5058.121538	4.214042	0.005697	3.984708
136.947446	5064.106692	4.219046	0.005659	3.986923
137.006218	5070.107926	4.224051	0.005647	3.989130
137.178683	5076.131651	4.229056	0.005613	3.991354
137.254022	5082.134869	4.234061	0.005597	3.993561
137.418943	5088.156977	4.239066	0.005565	3.995781
137.367946	5094.125058	4.244070	0.005573	3.997962
137.520614	5100.173019	4.249075	0.005543	4.000188
137.555457	5106.141137	4.254080	0.005535	4.002374
137.848253	5112.169781	4.259085	0.005478	4.004603
137.893183	5118.191769	4.264090	0.005468	4.006807
137.924940	5124.171435	4.269094	0.005461	4.008993
137.928684	5130.205452	4.274099	0.005459	4.011195
138.085531	5136.196610	4.279104	0.005428	4.013393
138.231108	5142.198048	4.284109	0.005399	4.015594
138.471565	5148.182338	4.289114	0.005353	4.017794
138.518295	5154.217067	4.294118	0.005342	4.019996
138.670588	5160.233872	4.299123	0.005312	4.022198
138.684870	5166.233920	4.304128	0.005308	4.024382
138.967810	5172.247513	4.309133	0.005253	4.026592
138.919607	5178.253286	4.314138	0.005261	4.028770
139.174000	5184.244176	4.319142	0.005212	4.030967
139.222986	5190.244156	4.324147	0.005201	4.033148
139.258486	5196.275515	4.329152	0.005193	4.035339
139.299277	5202.282233	4.334157	0.005184	4.037520
139.318445	5208.279147	4.339162	0.005179	4.039694
139.585317	5214.295889	4.344166	0.005127	4.041896
139.617499	5220.305830	4.349171	0.005120	4.044074
139.712416	5226.307916	4.354176	0.005100	4.046253
139.857739	5232.286905	4.359181	0.005072	4.048427
139.886740	5238.343667	4.364186	0.005065	4.050618
139.960432	5244.326788	4.369190	0.005049	4.052785
140.169001	5250.342485	4.374195	0.005009	4.054974
140.416853	5256.317813	4.379200	0.004961	4.057150
140.520768	5262.364375	4.384205	0.004940	4.059339
140.659238	5268.336073	4.389210	0.004912	4.061502
140.661618	5274.389250	4.394214	0.004910	4.063683
140.829684	5280.371892	4.399219	0.004877	4.065850
140.897761	5286.353076	4.404224	0.004863	4.068008
141.024174	5292.389159	4.409229	0.004838	4.070189
141.066188	5298.387142	4.414234	0.004828	4.072348
141.209471	5304.398066	4.419238	0.004800	4.074519
141.263259	5310.386732	4.424243	0.004789	4.076674
141.404978	5316.413218	4.429248	0.004760	4.078848
141.329267	5322.420624	4.434253	0.004773	4.080996
141.612432	5328.426373	4.439258	0.004719	4.083172
141.717107	5334.444116	4.444262	0.004697	4.085337
141.793153	5340.433281	4.449267	0.004682	4.087487
141.907920	5346.447310	4.454272	0.004659	4.089649
142.114333	5352.448846	4.459277	0.004618	4.091813
142.216505	5358.469617	4.464282	0.004598	4.093973
142.302623	5364.475431	4.469286	0.004580	4.096126
142.308105	5370.480991	4.474291	0.004578	4.098271
142.539261	5376.492461	4.479296	0.004533	4.100436
142.581795	5382.488057	4.484301	0.004523	4.102578
142.796390	5388.493152	4.489306	0.004482	4.104737
142.870532	5394.473012	4.494310	0.004466	4.106874
143.042596	5400.526680	4.499315	0.004432	4.109044
142.963000	5406.498723	4.504320	0.004446	4.111163
143.152728	5412.521463	4.509325	0.004409	4.113322
143.202570	5418.537054	4.514330	0.004398	4.115465
143.401815	5424.514003	4.519334	0.004359	4.117605
143.545808	5430.562935	4.524339	0.004330	4.119766
143.819195	5436.543575	4.529344	0.004278	4.121911
143.859763	5442.569596	4.534349	0.004269	4.124053
144.120917	5448.540942	4.539354	0.004218	4.126192
144.468846	5454.562836	4.544358	0.004151	4.128354
144.733740	5460.589170	4.549363	0.004100	4.130511
144.974704	5466.556269	4.554368	0.004053	4.132643
145.102691	5472.606742	4.559373	0.004028	4.134795
145.212152	5478.585150	4.564378	0.004006	4.136918
145.296809	5484.604944	4.569382	0.003989	4.139053
145.336883	5490.610524	4.574387	0.003980	4.141179
145.682781	5496.652094	4.579392	0.003913	4.143340
145.746223	5502.635729	4.584397	0.003900	4.145458
145.901083	5508.623158	4.589402	0.003869	4.147582
145.800774	5514.644434	4.594406	0.003887	4.149698
145.988847	5520.662529	4.599411	0.003850	4.151834
146.167592	5526.642462	4.604416	0.003815	4.153955
146.515881	5532.682451	4.609421	0.003748	4.156109
146.449058	5538.699731	4.614426	0.003759	4.158221
146.674592	5544.708809	4.619430	0.003715	4.160353
146.663958	5550.683248	4.624435	0.003716	4.162452
146.723164	5556.707310	4.629440	0.003703	4.164574
146.706705	5562.699785	4.634445	0.003705	4.166677
146.845765	5568.729098	4.639450	0.003677	4.168804
147.060400	5574.718895	4.644454	0.003635	4.170923
147.097858	5580.721900	4.649459	0.003627	4.173031
147.256652	5586.737485	4.654464	0.003596	4.175151
147.440392	5592.705186	4.659469	0.003560	4.177256
147.504952	5598.764895	4.664474	0.003546	4.179383
147.669424	5604.750204	4.669478	0.003514	4.181490
147.779919	5610.763082	4.674483	0.003491	4.183602
147.880402	5616.765187	4.679488	0.003471	4.185708
147.913849	5622.777170	4.684493	0.003463	4.187811
148.051527	5628.796828	4.689498	0.003436	4.189924
148.149617	5634.775562	4.694502	0.003416	4.192019
148.403729	5640.797120	4.699507	0.003367	4.194139
148.558429	5646.774846	4.704512	0.003336	4.196236
148.566792	5652.818402	4.709517	0.003333	4.198343
148.592764	5658.850355	4.714522	0.003327	4.200446
148.667226	5664.816355	4.719526	0.003312	4.202529
148.789562	5670.822358	4.724531	0.003287	4.204629
148.905272	5676.835567	4.729536	0.003264	4.206729
148.990337	5682.851388	4.734541	0.003246	4.208827
149.003194	5688.852871	4.739546	0.003243	4.210914
149.137339	5694.846875	4.744550	0.003216	4.213006
149.320950	5700.896926	4.749555	0.003180	4.215120
149.398073	5706.851051	4.754560	0.003164	4.217192
149.601530	5712.882196	4.759565	0.003124	4.219299
149.440540	5718.866543	4.764570	0.003153	4.221361
149.586730	5724.900080	4.769574	0.003124	4.223462
149.718886	5730.883842	4.774579	0.003098	4.225544
149.935739	5736.914356	4.779584	0.003056	4.227648
149.944384	5742.908587	4.784589	0.003053	4.229722
150.021956	5748.936782	4.789594	0.003036	4.231812
149.939633	5754.926056	4.794598	0.003050	4.233876
150.115267	5760.919859	4.799603	0.003016	4.235960
150.079328	5766.969999	4.804608	0.003021	4.238046
150.412917	5772.961693	4.809613	0.002957	4.240138
150.437202	5778.941360	4.814618	0.002951	4.242203
150.655591	5784.972354	4.819622	0.002909	4.244298
150.599934	5790.968052	4.824627	0.002918	4.246360
150.884974	5796.970692	4.829632	0.002863	4.248448
150.943721	5802.971042	4.834637	0.002850	4.250518
151.217367	5808.999485	4.839642	0.002797	4.252613
151.216329	5815.010576	4.844646	0.002796	4.254680
151.414542	5820.959679	4.849651	0.002757	4.256740
151.304936	5827.049192	4.854656	0.002776	4.258823
151.608126	5832.993355	4.859661	0.002718	4.260887
151.736826	5839.020049	4.864666	0.002692	4.262965
151.877572	5845.054421	4.869670	0.002665	4.265046
151.683436	5851.023731	4.874675	0.002699	4.267078
151.915539	5857.054340	4.879680	0.002654	4.269162
152.110584	5863.029422	4.884685	0.002616	4.271223
152.439499	5869.076274	4.889690	0.002553	4.273318
152.410590	5875.047091	4.894694	0.002557	4.275359
152.715087	5881.108006	4.899699	0.002498	4.277454
152.727329	5887.075804	4.904704	0.002495	4.279496
152.929483	5893.084325	4.909709	0.002455	4.281564
152.937839	5899.118162	4.914714	0.002452	4.283625
153.165288	5905.072323	4.919718	0.002408	4.285674
153.198257	5911.128697	4.924723	0.002400	4.287743
153.470981	5917.131258	4.929728	0.002348	4.289810
153.327291	5923.106702	4.934733	0.002373	4.291837
153.582622	5929.164698	4.939738	0.002324	4.293919
153.631210	5935.128636	4.944742	0.002313	4.295954
153.932038	5941.136146	4.949747	0.002255	4.298021
154.005751	5947.157418	4.954752	0.002240	4.300075
154.177369	5953.162599	4.959757	0.002206	4.302129
154.300617	5959.181930	4.964762	0.002182	4.304184
154.238785	5965.165394	4.969766	0.002192	4.306213
154.311423	5971.186549	4.974771	0.002177	4.308263
154.555505	5977.188942	4.979776	0.002129	4.310318
154.583732	5983.191288	4.984781	0.002123	4.312356
154.744428	5989.238407	4.989786	0.002091	4.314418
154.681807	5995.186511	4.994790	0.002101	4.316429
154.753046	5999.331983	4.999795	0.002087	4.317839
154.842901	5999.380249	5.004800	0.002070	4.317862
154.927099	5999.400219	5.009805	0.002054	4.317875
155.106258	5999.465533	5.014810	0.002020	4.317910
155.073382	5999.375715	5.019814	0.002027	4.317877
155.146839	5999.441278	5.024819	0.002013	4.317904
155.147826	5999.412497	5.029824	0.002013	4.317895
155.116318	5999.445893	5.034829	0.002019	4.317904
155.307165	5999.411038	5.039834	0.001983	4.317906
155.354971	5999.445162	5.044838	0.001974	4.317921
155.651259	5999.420254	5.049843	0.001918	4.317933
155.400041	5999.419956	5.054848	0.001965	4.317915
155.497009	5999.443678	5.059853	0.001947	4.317930
155.489932	5999.418446	5.064858	0.001948	4.317921
155.752369	5999.397937	5.069862	0.001899	4.317933
155.647940	5999.408975	5.074867	0.001919	4.317929
155.678540	5999.469783	5.079872	0.001913	4.317952
155.511159	5999.421328	5.084877	0.001944	4.317924
155.611873	5999.435040	5.089882	0.001926	4.317936
155.630887	5999.378481	5.094886	0.001922	4.317918
155.670537	5999.427235	5.099891	0.001915	4.317937
155.878369	5999.449619	5.104896	0.001876	4.317960
155.806001	5999.401336	5.109901	0.001889	4.317938
155.900618	5999.462424	5.114906	0.001871	4.317965
155.972993	5999.409319	5.119910	0.001858	4.317953
155.920223	5999.411269	5.124915	0.001868	4.317950
156.078376	5999.454305	5.129920	0.001838	4.317975
156.081718	5999.386313	5.134925	0.001837	4.317953
156.078506	5999.392523	5.139930	0.001838	4.317955
156.036309	5999.453989	5.144934	0.001846	4.317972
156.216762	5999.420414	5.149939	0.001812	4.317974
156.251921	5999.392697	5.154944	0.001805	4.317967
156.378618	5999.405521	5.159949	0.001782	4.317980
156.212064	5999.426938	5.164954	0.001813	4.317976
156.402456	5999.433659	5.169958	0.001777	4.317992
156.263886	5999.429798	5.174963	0.001803	4.317980
156.343660	5999.418449	5.179968	0.001788	4.317982
156.300035	5999.414775	5.184973	0.001796	4.317978
156.492516	5999.402621	5.189978	0.001760	4.317988
156.589671	5999.397732	5.194982	0.001742	4.317993
156.650497	5999.425418	5.199987	0.001731	4.318007
156.460739	5999.408423	5.204992	0.001766	4.317987
156.602959	5999.409668	5.209997	0.001740	4.317998
156.382569	5999.380721	5.215002	0.001781	4.317972
156.655875	5999.393863	5.220006	0.001730	4.317996
156.653320	5999.410994	5.225011	0.001730	4.318002
156.760852	5999.402989	5.230016	0.001710	4.318007
156.774290	5999.417659	5.235021	0.001707	4.318013
156.850127	5999.420047	5.240026	0.001693	4.318019
156.703037	5999.410614	5.245030	0.001721	4.318005
156.909050	5999.402971	5.250035	0.001682	4.318018
156.970053	5999.395593	5.255040	0.001671	4.318019
157.085780	5999.397837	5.260045	0.001649	4.318029
157.131272	5999.392820	5.265050	0.001640	4.318030
157.268300	5999.409914	5.270054	0.001615	4.318046
157.280801	5999.457044	5.275059	0.001612	4.318063
157.245258	5999.406494	5.280064	0.001619	4.318043
157.253144	5999.375329	5.285069	0.001618	4.318033
157.187277	5999.397562	5.290074	0.001630	4.318036
157.197876	5999.388867	5.295078	0.001628	4.318034
157.171597	5999.407332	5.300083	0.001633	4.318038
157.058940	5999.443151	5.305088	0.001654	4.318042
157.270129	5999.430728	5.310093	0.001614	4.318053
157.303461	5999.390492	5.315098	0.001608	4.318042
157.304332	5999.381090	5.320102	0.001608	4.318039
157.430762	5999.460342	5.325107	0.001584	4.318074
157.425343	5999.383139	5.330112	0.001585	4.318048
157.404027	5999.359996	5.335117	0.001589	4.318039
157.536739	5999.448980	5.340122	0.001564	4.318078
157.665037	5999.359154	5.345126	0.001540	4.318057
157.669570	5999.450372	5.350131	0.001539	4.318088
157.504658	5999.368200	5.355136	0.001570	4.318049
157.555612	5999.444987	5.360141	0.001561	4.318078
157.685779	5999.347392	5.365146	0.001536	4.318054
157.635844	5999.456586	5.370150	0.001546	4.318088
157.639628	5999.347017	5.375155	0.001545	4.318051
157.798925	5999.431299	5.380160	0.001515	4.318091
157.708547	5999.406176	5.385165	0.001532	4.318076
157.787502	5999.355365	5.390170	0.001517	4.318064
157.659289	5999.415677	5.395174	0.001541	4.318076
157.893845	5999.418590	5.400179	0.001497	4.318093
157.865566	5999.399686	5.405184	0.001503	4.318085
157.880593	5999.421394	5.410189	0.001500	4.318093
157.866602	5999.365361	5.415194	0.001503	4.318073
157.937988	5999.354866	5.420198	0.001489	4.318075
158.135636	5999.428270	5.425203	0.001452	4.318114
158.226186	5999.373163	5.430208	0.001435	4.318102
158.072961	5999.410190	5.435213	0.001464	4.318103
158.144669	5999.419907	5.440218	0.001450	4.318112
158.047882	5999.360190	5.445222	0.001469	4.318085
158.222518	5999.370252	5.450227	0.001436	4.318101
158.142419	5999.435131	5.455232	0.001451	4.318117
158.299713	5999.400009	5.460237	0.001421	4.318116
158.223664	5999.381071	5.465242	0.001436	4.318104
158.187958	5999.424575	5.470246	0.001442	4.318117
158.218285	5999.354555	5.475251	0.001437	4.318095
158.310402	5999.439228	5.480256	0.001419	4.318130
158.317577	5999.397151	5.485261	0.001418	4.318117
158.407185	5999.361600	5.490266	0.001401	4.318111
158.458431	5999.394082	5.495270	0.001391	4.318126
158.450425	5999.398541	5.500275	0.001393	4.318127
158.482141	5999.369708	5.505280	0.001387	4.318119
158.599925	5999.371520	5.510285	0.001365	4.318128
158.425213	5999.381752	5.515290	0.001398	4.318119
158.527559	5999.447670	5.520294	0.001378	4.318149
158.539938	5999.345496	5.525299	0.001376	4.318115
158.616395	5999.380941	5.530304	0.001362	4.318133
158.618428	5999.394338	5.535309	0.001361	4.318137
158.821358	5999.388277	5.540314	0.001323	4.318150
158.746932	5999.377290	5.545318	0.001337	4.318141
158.652964	5999.427591	5.550323	0.001355	4.318151
158.698596	5999.346035	5.555328	0.001346	4.318127
158.887103	5999.362383	5.560333	0.001311	4.318146
158.789178	5999.357291	5.565338	0.001329	4.318137
158.921419	5999.357889	5.570342	0.001305	4.318147
158.810922	5999.438419	5.575347	0.001325	4.318166
158.900058	5999.380844	5.580352	0.001309	4.318153
158.898784	5999.358990	5.585357	0.001309	4.318145
159.030088	5999.416940	5.590362	0.001284	4.318174
158.936486	5999.422915	5.595366	0.001302	4.318170
159.011949	5999.337814	5.600371	0.001288	4.318146
159.057462	5999.395477	5.605376	0.001279	4.318169
159.191628	5999.402122	5.610381	0.001254	4.318181
159.109597	5999.400119	5.615386	0.001269	4.318174
159.173796	5999.432628	5.620390	0.001257	4.318190
159.194487	5999.385846	5.625395	0.001253	4.318176
159.266916	5999.400021	5.630400	0.001240	4.318186
159.209889	5999.391806	5.635405	0.001250	4.318179
159.189528	5999.328820	5.640410	0.001254	4.318156
159.218354	5999.468371	5.645414	0.001249	4.318205
159.380802	5999.337211	5.650419	0.001218	4.318172
159.387551	5999.431654	5.655424	0.001217	4.318205
159.484464	5999.395479	5.660429	0.001199	4.318200
159.318748	5999.355870	5.665434	0.001230	4.318174
159.410526	5999.458135	5.670438	0.001213	4.318216
159.476849	5999.332562	5.675443	0.001200	4.318178
159.593509	5999.405596	5.680448	0.001178	4.318211
159.503639	5999.420922	5.685453	0.001195	4.318210
159.574535	5999.427125	5.690458	0.001182	4.318217
159.590856	5999.404314	5.695462	0.001179	4.318210
159.644163	5999.405020	5.700467	0.001169	4.318214
159.618115	5999.398547	5.705472	0.001174	4.318210
159.631430	5999.331201	5.710477	0.001171	4.318188
159.790290	5999.395309	5.715482	0.001142	4.318221
159.773401	5999.387819	5.720486	0.001145	4.318218
159.689582	5999.386193	5.725491	0.001160	4.318211
159.781720	5999.386060	5.730496	0.001143	4.318218
159.852156	5999.425548	5.735501	0.001130	4.318236
159.806704	5999.355884	5.740506	0.001138	4.318209
159.639269	5999.394994	5.745510	0.001170	4.318211
159.849216	5999.451982	5.750515	0.001130	4.318245
159.842094	5999.391724	5.755520	0.001132	4.318224
159.867187	5999.367978	5.760525	0.001127	4.318218
159.935324	5999.467874	5.765530	0.001114	4.318256
160.016747	5999.362150	5.770534	0.001099	4.318226
159.901634	5999.381893	5.775539	0.001121	4.318225
159.925073	5999.389841	5.780544	0.001116	4.318229
159.980346	5999.432537	5.785549	0.001106	4.318248
160.160589	5999.434047	5.790554	0.001072	4.318261
160.121657	5999.327050	5.795558	0.001079	4.318222
160.190279	5999.446203	5.800563	0.001066	4.318267
160.137381	5999.414066	5.805568	0.001076	4.318253
160.171316	5999.390294	5.810573	0.001070	4.318247
160.096492	5999.412576	5.815578	0.001084	4.318249
160.299760	5999.359434	5.820582	0.001046	4.318246
160.239512	5999.440397	5.825587	0.001057	4.318269
160.311963	5999.423227	5.830592	0.001044	4.318268
160.279141	5999.401592	5.835597	0.001050	4.318259
160.398599	5999.356962	5.840602	0.001027	4.318252
160.429317	5999.416838	5.845606	0.001022	4.318275
160.414857	5999.435569	5.850611	0.001024	4.318280
160.448865	5999.435750	5.855616	0.001018	4.318282
160.389557	5999.350578	5.860621	0.001029	4.318249
160.411726	5999.387372	5.865626	0.001025	4.318263
160.508708	5999.430465	5.870630	0.001007	4.318285
160.517812	5999.423930	5.875635	0.001005	4.318283
160.525330	5999.388230	5.880640	0.001004	4.318272
160.395617	5999.365889	5.885645	0.001028	4.318255
160.500156	5999.416602	5.890650	0.001008	4.318280
160.450632	5999.414173	5.895654	0.001018	4.318275
160.561711	5999.414643	5.900659	0.000997	4.318283
160.576308	5999.422618	5.905664	0.000994	4.318287
160.803727	5999.411384	5.910669	0.000951	4.318300
160.652120	5999.409346	5.915674	0.000980	4.318288
160.778512	5999.416718	5.920678	0.000956	4.318300
160.673367	5999.396554	5.925683	0.000976	4.318285
160.651351	5999.413196	5.930688	0.000980	4.318289
160.705030	5999.398153	5.935693	0.000970	4.318288
160.869956	5999.413046	5.940698	0.000939	4.318305
160.800004	5999.413094	5.945702	0.000952	4.318300
160.644608	5999.386044	5.950707	0.000981	4.318280
160.673401	5999.410375	5.955712	0.000976	4.318290
160.747896	5999.417664	5.960717	0.000962	4.318298
160.919866	5999.399723	5.965722	0.000930	4.318304
160.908203	5999.402190	5.970726	0.000932	4.318304
160.765826	5999.435996	5.975731	0.000958	4.318305
160.794063	5999.398678	5.980736	0.000953	4.318295
160.828489	5999.421818	5.985741	0.000947	4.318305
160.976614	5999.395093	5.990746	0.000919	4.318306
160.926165	5999.408531	5.995750	0.000928	4.318307
160.996739	5999.417571	6.000755	0.000915	4.318315
160.823867	5999.417265	6.005760	0.000948	4.318303
160.919639	5999.411755	6.010765	0.000930	4.318308
160.981144	5999.415339	6.015770	0.000918	4.318314
161.073073	5999.407876	6.020774	0.000901	4.318318
161.079713	5999.414769	6.025779	0.000900	4.318320
161.062907	5999.435840	6.030784	0.000903	4.318326
161.098490	5999.426469	6.035789	0.000896	4.318326
161.054500	5999.394289	6.040794	0.000904	4.318312
161.207563	5999.443038	6.045798	0.000876	4.318339
161.236488	5999.425857	6.050803	0.000870	4.318335
161.267114	5999.377892	6.055808	0.000864	4.318321
161.193755	5999.433052	6.060813	0.000878	4.318335
161.241126	5999.405515	6.065818	0.000869	4.318329
161.355493	5999.401604	6.070822	0.000848	4.318336
161.453322	5999.395661	6.075827	0.000830	4.318341
161.471912	5999.394494	6.080832	0.000826	4.318342
161.421463	5999.422682	6.085837	0.000835	4.318348
161.619704	5999.480315	6.090842	0.000798	4.318381
161.465169	5999.399608	6.095846	0.000827	4.318343
161.531222	5999.401308	6.100851	0.000815	4.318348
161.524142	5999.415713	6.105856	0.000816	4.318353
161.495294	5999.396001	6.110861	0.000822	4.318344
161.534891	5999.457691	6.115866	0.000814	4.318368
161.578740	5999.422602	6.120870	0.000806	4.318359
161.503939	5999.440269	6.125875	0.000820	4.318359
161.616405	5999.404493	6.130880	0.000799	4.318355
161.576598	5999.393554	6.135885	0.000806	4.318349
161.623333	5999.394731	6.140890	0.000798	4.318353
161.578654	5999.495452	6.145894	0.000806	4.318384
161.582467	5999.405219	6.150899	0.000805	4.318353
161.654118	5999.390984	6.155904	0.000792	4.318354
161.646048	5999.387160	6.160909	0.000793	4.318352
161.540192	5999.447351	6.165914	0.000813	4.318364
161.711638	5999.442430	6.170918	0.000781	4.318375
161.697140	5999.381884	6.175923	0.000784	4.318354
161.698482	5999.455354	6.180928	0.000783	4.318379
161.623725	5999.439822	6.185933	0.000798	4.318368
161.776298	5999.381734	6.190938	0.000769	4.318359
161.758034	5999.407724	6.195942	0.000772	4.318367
161.949045	5999.444761	6.200947	0.000736	4.318393
161.685847	5999.387038	6.205952	0.000786	4.318354
161.830350	5999.485542	6.210957	0.000759	4.318398
161.822942	5999.375555	6.215962	0.000760	4.318360
161.908122	5999.471857	6.220966	0.000744	4.318399
161.871227	5999.377326	6.225971	0.000751	4.318364
161.936318	5999.477878	6.230976	0.000739	4.318403
161.886032	5999.385258	6.235981	0.000748	4.318368
161.937958	5999.459092	6.240986	0.000739	4.318397
162.025082	5999.357688	6.245990	0.000722	4.318369
162.049360	5999.429074	6.250995	0.000718	4.318395
162.191728	5999.423852	6.256000	0.000691	4.318403
162.172341	5999.418733	6.261005	0.000695	4.318400
162.136898	5999.429918	6.266010	0.000701	4.318401
162.105515	5999.445776	6.271014	0.000707	4.318404
162.154864	5999.426117	6.276019	0.000698	4.318401
162.206961	5999.410488	6.281024	0.000688	4.318400
162.216599	5999.415825	6.286029	0.000686	4.318402
162.215712	5999.415090	6.291034	0.000686	4.318402
162.289947	5999.413217	6.296038	0.000673	4.318407
162.351142	5999.498922	6.301043	0.000661	4.318440
162.381633	5999.435311	6.306048	0.000655	4.318421
162.347967	5999.402788	6.311053	0.000662	4.318407
162.417459	5999.399153	6.316058	0.000649	4.318411
162.418551	5999.492961	6.321062	0.000648	4.318443
162.432595	5999.405171	6.326067	0.000646	4.318414
162.538743	5999.480446	6.331072	0.000626	4.318447
162.479852	5999.362906	6.336077	0.000637	4.318403
162.529243	5999.441889	6.341082	0.000628	4.318433
162.632337	5999.453273	6.346086	0.000608	4.318445
162.533447	5999.452985	6.351091	0.000627	4.318438
162.693124	5999.355595	6.356096	0.000597	4.318416
162.744011	5999.505254	6.361101	0.000587	4.318470
162.730586	5999.412208	6.366106	0.000590	4.318438
162.901674	5999.382473	6.371110	0.000558	4.318440
162.809945	5999.432301	6.376115	0.000575	4.318450
162.800116	5999.465727	6.381120	0.000577	4.318461
162.814715	5999.459873	6.386125	0.000574	4.318460
162.695927	5999.413085	6.391130	0.000596	4.318436
162.771862	5999.459718	6.396134	0.000582	4.318457
162.931925	5999.407422	6.401139	0.000552	4.318451
162.776347	5999.417280	6.406144	0.000581	4.318443
162.820549	5999.412541	6.411149	0.000573	4.318444
162.881485	5999.497381	6.416154	0.000561	4.318477
162.954549	5999.402637	6.421158	0.000548	4.318451
162.966832	5999.398195	6.426163	0.000546	4.318450
163.074527	5999.463926	6.431168	0.000525	4.318480
163.020891	5999.471583	6.436173	0.000535	4.318479
162.943884	5999.379999	6.441178	0.000550	4.318442
162.905941	5999.485754	6.446182	0.000557	4.318475
162.866652	5999.407399	6.451187	0.000564	4.318446
162.849330	5999.430424	6.456192	0.000568	4.318453
163.008737	5999.459402	6.461197	0.000538	4.318474
162.818054	5999.438883	6.466202	0.000573	4.318453
162.932806	5999.421987	6.471206	0.000552	4.318456
163.011950	5999.479928	6.476211	0.000537	4.318481
163.063435	5999.368542	6.481216	0.000527	4.318447
163.008736	5999.491671	6.486221	0.000538	4.318485
163.136644	5999.431425	6.491226	0.000514	4.318473
163.006004	5999.419412	6.496230	0.000538	4.318460
163.070687	5999.467504	6.501235	0.000526	4.318481
163.078394	5999.394881	6.506240	0.000525	4.318457
163.234903	5999.419862	6.511245	0.000495	4.318477
163.154269	5999.457201	6.516250	0.000510	4.318483
162.991119	5999.479724	6.521254	0.000541	4.318479
162.973354	5999.363624	6.526259	0.000544	4.318439
162.959428	5999.485505	6.531264	0.000547	4.318479
163.174286	5999.396726	6.536269	0.000507	4.318464
163.226353	5999.437344	6.541274	0.000497	4.318482
163.269735	5999.435544	6.546278	0.000489	4.318484
163.154482	5999.441482	6.551283	0.000510	4.318478
163.123951	5999.468223	6.556288	0.000516	4.318485
163.225364	5999.423724	6.561293	0.000497	4.318477
163.328384	5999.424061	6.566298	0.000478	4.318485
163.350380	5999.400047	6.571302	0.000474	4.318478
163.309432	5999.443744	6.576307	0.000481	4.318490
163.149837	5999.454450	6.581312	0.000511	4.318482
163.212185	5999.449561	6.586317	0.000499	4.318485
163.197882	5999.423082	6.591322	0.000502	4.318475
163.322517	5999.432678	6.596326	0.000479	4.318487
163.323750	5999.394616	6.601331	0.000479	4.318474
163.313073	5999.400562	6.606336	0.000481	4.318476
163.332402	5999.449949	6.611341	0.000477	4.318494
163.385080	5999.451715	6.616346	0.000467	4.318498
163.362603	5999.387320	6.621350	0.000471	4.318475
163.358200	5999.455557	6.626355	0.000472	4.318497
163.403982	5999.447717	6.631360	0.000463	4.318498
163.413902	5999.458527	6.636365	0.000462	4.318502
163.351279	5999.440425	6.641370	0.000473	4.318492
163.293013	5999.383599	6.646374	0.000484	4.318468
163.338566	5999.465241	6.651379	0.000476	4.318499
163.510308	5999.452888	6.656384	0.000444	4.318507
163.497870	5999.428781	6.661389	0.000446	4.318498
163.452944	5999.386651	6.666394	0.000454	4.318481
163.447082	5999.469949	6.671398	0.000455	4.318509
163.432799	5999.399210	6.676403	0.000458	4.318484
163.498592	5999.495012	6.681408	0.000446	4.318521
163.507709	5999.368614	6.686413	0.000444	4.318479
163.595368	5999.469934	6.691418	0.000428	4.318519
163.550179	5999.414951	6.696422	0.000436	4.318497
163.580196	5999.412290	6.701427	0.000430	4.318499
163.506432	5999.419594	6.706432	0.000444	4.318496
163.727755	5999.455763	6.711437	0.000403	4.318524
163.720952	5999.434151	6.716442	0.000404	4.318516
163.724261	5999.421466	6.721446	0.000403	4.318512
163.668739	5999.432287	6.726451	0.000414	4.318512
163.756657	5999.475466	6.731456	0.000397	4.318533
163.819444	5999.386581	6.736461	0.000386	4.318507
163.838975	5999.415643	6.741466	0.000382	4.318518
163.838643	5999.447984	6.746470	0.000382	4.318529
163.793390	5999.434505	6.751475	0.000390	4.318522
163.907815	5999.453638	6.756480	0.000369	4.318536
163.858538	5999.425335	6.761485	0.000378	4.318523
163.676836	5999.399226	6.766490	0.000412	4.318501
163.788094	5999.443923	6.771494	0.000391	4.318524
163.903583	5999.385382	6.776499	0.000370	4.318513
163.879257	5999.441238	6.781504	0.000374	4.318530
163.999995	5999.435985	6.786509	0.000352	4.318537
163.964880	5999.418518	6.791514	0.000358	4.318528
164.036024	5999.443117	6.796518	0.000345	4.318542
163.984992	5999.420718	6.801523	0.000354	4.318531
164.014262	5999.440344	6.806528	0.000349	4.318539
163.823487	5999.383882	6.811533	0.000385	4.318507
163.929542	5999.468405	6.816538	0.000365	4.318543
164.034629	5999.416674	6.821542	0.000345	4.318533
164.083036	5999.436862	6.826547	0.000336	4.318543
164.187228	5999.418514	6.831552	0.000317	4.318544
164.099522	5999.436142	6.836557	0.000333	4.318544
164.088566	5999.397890	6.841562	0.000335	4.318530
164.036371	5999.436590	6.846566	0.000345	4.318540
163.989536	5999.432665	6.851571	0.000354	4.318535
164.016082	5999.385560	6.856576	0.000349	4.318521
164.105515	5999.482819	6.861581	0.000332	4.318560
164.114927	5999.371108	6.866586	0.000330	4.318523
164.216542	5999.483310	6.871590	0.000311	4.318568
164.191799	5999.429533	6.876595	0.000316	4.318548
164.039259	5999.398176	6.881600	0.000344	4.318527
164.135349	5999.414734	6.886605	0.000326	4.318539
164.190803	5999.464781	6.891610	0.000316	4.318560
164.208324	5999.411286	6.896614	0.000313	4.318543
164.244574	5999.384256	6.901619	0.000306	4.318537
164.130812	5999.451652	6.906624	0.000327	4.318551
164.291450	5999.406613	6.911629	0.000297	4.318548
164.294835	5999.469517	6.916634	0.000296	4.318569
164.289751	5999.361793	6.921638	0.000297	4.318532
164.402278	5999.496583	6.926643	0.000276	4.318586
164.305752	5999.367629	6.931648	0.000294	4.318536
164.385454	5999.472480	6.936653	0.000279	4.318577
164.409972	5999.406440	6.941658	0.000275	4.318556
164.487873	5999.413937	6.946662	0.000260	4.318564
164.491032	5999.420645	6.951667	0.000259	4.318567
164.479081	5999.420407	6.956672	0.000262	4.318566
164.370753	5999.471901	6.961677	0.000282	4.318576
164.505129	5999.378938	6.966682	0.000257	4.318554
164.384320	5999.462578	6.971686	0.000280	4.318573
164.638397	5999.349830	6.976691	0.000232	4.318553
164.552173	5999.475945	6.981696	0.000248	4.318590
164.622642	5999.402031	6.986701	0.000235	4.318570
164.584611	5999.410074	6.991706	0.000242	4.318570
164.596406	5999.449993	6.996710	0.000240	4.318584
164.668900	5999.371040	7.001715	0.000226	4.318563
164.590179	5999.460531	7.006720	0.000241	4.318587
164.585824	5999.408895	7.011725	0.000242	4.318570
164.757813	5999.381741	7.016730	0.000209	4.318573
164.753333	5999.449076	7.021734	0.000210	4.318595
164.674474	5999.446391	7.026739	0.000225	4.318589
164.525531	5999.425335	7.031744	0.000253	4.318571
164.572375	5999.378547	7.036749	0.000244	4.318558
164.492293	5999.452650	7.041754	0.000259	4.318578
164.625357	5999.383938	7.046758	0.000234	4.318564
164.658906	5999.428477	7.051763	0.000228	4.318581
164.634101	5999.455852	7.056768	0.000233	4.318589
164.717676	5999.379165	7.061773	0.000217	4.318569
164.744535	5999.405756	7.066778	0.000212	4.318580
164.701801	5999.441534	7.071782	0.000220	4.318589
164.837341	5999.441451	7.076787	0.000195	4.318599
164.785612	5999.412744	7.081792	0.000204	4.318585
164.905545	5999.391989	7.086797	0.000182	4.318587
164.853804	5999.418606	7.091802	0.000191	4.318592
164.906509	5999.385330	7.096806	0.000182	4.318585
164.731574	5999.404809	7.101811	0.000214	4.318579
164.762900	5999.457195	7.106816	0.000208	4.318599
164.647448	5999.453029	7.111821	0.000230	4.318589
164.797179	5999.396466	7.116826	0.000202	4.318581
164.803301	5999.401626	7.121830	0.000201	4.318583
164.878800	5999.384736	7.126835	0.000187	4.318582
164.970607	5999.416033	7.131840	0.000170	4.318600
164.984236	5999.436202	7.136845	0.000167	4.318607
164.953830	5999.420503	7.141850	0.000173	4.318600
165.174096	5999.429242	7.146854	0.000131	4.318619
165.208344	5999.427532	7.151859	0.000125	4.318620
165.168422	5999.417533	7.156864	0.000132	4.318614
165.171826	5999.408515	7.161869	0.000132	4.318611
165.184663	5999.405800	7.166874	0.000129	4.318611
165.257977	5999.404126	7.171878	0.000116	4.318616
165.264603	5999.397192	7.176883	0.000114	4.318614
165.200687	5999.407943	7.181888	0.000126	4.318613
165.255038	5999.400137	7.186893	0.000116	4.318615
165.169783	5999.420012	7.191898	0.000132	4.318615
165.147641	5999.377669	7.196902	0.000136	4.318599
165.267343	5999.396613	7.201907	0.000114	4.318614
165.252957	5999.406110	7.206912	0.000117	4.318616
165.307930	5999.407392	7.211917	0.000106	4.318621
165.204800	5999.411684	7.216922	0.000126	4.318615
165.241097	5999.407696	7.221926	0.000119	4.318616
165.441426	5999.407744	7.226931	0.000081	4.318630
165.315387	5999.413192	7.231936	0.000105	4.318623
165.304939	5999.385895	7.236941	0.000107	4.318613
165.338434	5999.402785	7.241946	0.000100	4.318621
165.302758	5999.408486	7.246950	0.000107	4.318621
165.487469	5999.396162	7.251955	0.000073	4.318630
165.566377	5999.401604	7.256960	0.000058	4.318637
165.520716	5999.389131	7.261965	0.000066	4.318630
165.643441	5999.417579	7.266970	0.000043	4.318648
165.493968	5999.404009	7.271974	0.000071	4.318633
165.514395	5999.401533	7.276979	0.000067	4.318634
165.371214	5999.406917	7.281984	0.000094	4.318625
165.510549	5999.422632	7.286989	0.000068	4.318640
165.528343	5999.442843	7.291994	0.000065	4.318649
165.596738	5999.397027	7.296998	0.000052	4.318638
165.731597	5999.420143	7.302003	0.000027	4.318655
165.555716	5999.420456	7.307008	0.000060	4.318643
165.595483	5999.436942	7.312013	0.000052	4.318651
165.672011	5999.403238	7.317018	0.000038	4.318645
165.738629	5999.425111	7.322022	0.000025	4.318658
165.760967	5999.415776	7.327027	0.000021	4.318656
165.694027	5999.393972	7.332032	0.000034	4.318644
165.543808	5999.406377	7.337037	0.000062	4.318637
165.708942	5999.372376	7.342042	0.000031	4.318638
165.840476	5999.381442	7.347046	0.000006	4.318650
165.743487	5999.386278	7.352051	0.000024	4.318645
165.806820	5999.410690	7.357056	0.000013	4.318658
165.742430	5999.406788	7.362061	0.000025	4.318652
165.876662	5999.412517	7.367066	-0.000000	4.318663
165.941315	5999.429273	7.372070	-0.000013	4.318674
165.909106	5999.430552	7.377075	-0.000007	4.318672
165.791142	5999.414005	7.382080	0.000016	4.318658
165.896350	5999.377002	7.387085	-0.000004	4.318653
165.816630	5999.426135	7.392090	0.000011	4.318664
165.860920	5999.408470	7.397094	0.000002	4.318661
165.850596	5999.383912	7.402099	0.000004	4.318652
165.971707	5999.398872	7.407104	-0.000018	4.318665
165.886703	5999.371666	7.412109	-0.000002	4.318650
166.006605	5999.388725	7.417114	-0.000025	4.318664
165.822011	5999.428685	7.422118	0.000010	4.318665
166.090861	5999.446519	7.427123	-0.000041	4.318690
165.918236	5999.382517	7.432128	-0.000008	4.318656
166.141399	5999.368518	7.437133	-0.000050	4.318667
165.920818	5999.395802	7.442138	-0.000009	4.318661
166.048676	5999.430543	7.447142	-0.000033	4.318682
165.870926	5999.455224	7.452147	0.000001	4.318677
165.989921	5999.389487	7.457152	-0.000022	4.318664
165.974765	5999.374250	7.462157	-0.000019	4.318657
166.209822	5999.381711	7.467162	-0.000063	4.318677
165.978628	5999.416772	7.472166	-0.000020	4.318672
166.120800	5999.442032	7.477171	-0.000046	4.318691
166.062710	5999.364873	7.482176	-0.000035	4.318660
166.294340	5999.363837	7.487181	-0.000079	4.318677
166.174083	5999.463037	7.492186	-0.000056	4.318702
166.202210	5999.373177	7.497190	-0.000062	4.318673
166.137749	5999.415395	7.502195	-0.000049	4.318683
166.155983	5999.428137	7.507200	-0.000053	4.318689
166.038863	5999.360695	7.512205	-0.000031	4.318657
166.137029	5999.397105	7.517210	-0.000049	4.318677
166.010932	5999.368446	7.522214	-0.000026	4.318658
166.219323	5999.466379	7.527219	-0.000065	4.318706
166.210780	5999.348312	7.532224	-0.000063	4.318665
166.244318	5999.383637	7.537229	-0.000069	4.318680
166.151358	5999.463233	7.542234	-0.000052	4.318700
166.234431	5999.370052	7.547238	-0.000068	4.318674
166.203740	5999.378386	7.552243	-0.000062	4.318675
166.263566	5999.452413	7.557248	-0.000073	4.318704
166.220079	5999.334359	7.562253	-0.000065	4.318661
166.370558	5999.447307	7.567258	-0.000093	4.318710
166.322212	5999.352410	7.572262	-0.000084	4.318675
166.322793	5999.438965	7.577267	-0.000084	4.318704
166.272512	5999.341712	7.582272	-0.000075	4.318668
166.407811	5999.438506	7.587277	-0.000100	4.318710
166.175563	5999.388034	7.592282	-0.000057	4.318676
166.255356	5999.379458	7.597286	-0.000072	4.318679
166.302922	5999.450545	7.602291	-0.000080	4.318707
166.446889	5999.351863	7.607296	-0.000107	4.318684
166.399203	5999.431106	7.612301	-0.000099	4.318707
166.312712	5999.380238	7.617306	-0.000082	4.318684
166.287326	5999.446466	7.622310	-0.000078	4.318704
166.512775	5999.349917	7.627315	-0.000120	4.318688
166.467405	5999.432359	7.632320	-0.000111	4.318712
166.480471	5999.412997	7.637325	-0.000114	4.318707
166.409734	5999.335745	7.642330	-0.000101	4.318675
166.506958	5999.458113	7.647334	-0.000119	4.318724
166.306144	5999.363185	7.652339	-0.000081	4.318677
166.435654	5999.414176	7.657344	-0.000105	4.318704
166.484687	5999.407495	7.662349	-0.000115	4.318705
166.420963	5999.369333	7.667354	-0.000103	4.318688
166.475178	5999.403051	7.672358	-0.000113	4.318703
166.386781	5999.459552	7.677363	-0.000096	4.318716
166.440907	5999.321776	7.682368	-0.000106	4.318673
166.537831	5999.437752	7.687373	-0.000125	4.318719
166.621067	5999.410929	7.692378	-0.000140	4.318716
166.616068	5999.409219	7.697382	-0.000139	4.318715
166.553282	5999.371780	7.702387	-0.000127	4.318698
166.643430	5999.367470	7.707392	-0.000144	4.318703
166.659335	5999.377017	7.712397	-0.000147	4.318707
166.627696	5999.418748	7.717402	-0.000141	4.318719
166.612440	5999.375868	7.722406	-0.000139	4.318704
166.723834	5999.393807	7.727411	-0.000159	4.318718
166.545097	5999.393798	7.732416	-0.000126	4.318705
166.513121	5999.430068	7.737421	-0.000120	4.318715
166.509045	5999.410643	7.742426	-0.000119	4.318708
166.624419	5999.377946	7.747430	-0.000141	4.318705
166.587806	5999.406897	7.752435	-0.000134	4.318712
166.747820	5999.354616	7.757440	-0.000164	4.318706
166.644888	5999.410502	7.762445	-0.000145	4.318718
166.768512	5999.373293	7.767450	-0.000168	4.318714
166.680836	5999.390912	7.772454	-0.000151	4.318714
166.874601	5999.377600	7.777459	-0.000188	4.318723
166.815787	5999.354075	7.782464	-0.000177	4.318711
166.922395	5999.386858	7.787469	-0.000197	4.318729
166.898956	5999.425011	7.792474	-0.000192	4.318741
166.881149	5999.387281	7.797478	-0.000189	4.318727
166.840883	5999.411472	7.802483	-0.000181	4.318732
166.968650	5999.372466	7.807488	-0.000205	4.318728
166.825351	5999.376028	7.812493	-0.000179	4.318719
166.887403	5999.443131	7.817498	-0.000190	4.318746
166.847400	5999.334480	7.822502	-0.000183	4.318706
167.018156	5999.453289	7.827507	-0.000215	4.318759
166.960930	5999.359344	7.832512	-0.000204	4.318723
167.060971	5999.375996	7.837517	-0.000223	4.318736
166.900272	5999.403524	7.842522	-0.000193	4.318733
167.003937	5999.385291	7.847526	-0.000212	4.318735
167.075782	5999.406061	7.852531	-0.000225	4.318747
167.118340	5999.374008	7.857536	-0.000233	4.318739
166.990108	5999.386371	7.862541	-0.000209	4.318734
166.987107	5999.439567	7.867546	-0.000209	4.318752
166.976094	5999.335851	7.872550	-0.000207	4.318716
167.088029	5999.417304	7.877555	-0.000228	4.318752
166.925277	5999.409302	7.882560	-0.000197	4.318737
167.115115	5999.355325	7.887565	-0.000233	4.318733
167.063116	5999.378309	7.892570	-0.000223	4.318737
167.090081	5999.423325	7.897574	-0.000228	4.318754
167.033703	5999.383607	7.902579	-0.000218	4.318736
167.108321	5999.356762	7.907584	-0.000232	4.318733
167.122917	5999.377651	7.912589	-0.000234	4.318741
167.274522	5999.400920	7.917594	-0.000263	4.318759
167.148029	5999.388939	7.922598	-0.000239	4.318746
167.226690	5999.393514	7.927603	-0.000254	4.318753
167.281635	5999.408637	7.932608	-0.000264	4.318763
167.289617	5999.410638	7.937613	-0.000266	4.318764
167.168817	5999.381777	7.942618	-0.000243	4.318745
167.264298	5999.406771	7.947622	-0.000261	4.318761
167.172389	5999.366267	7.952627	-0.000244	4.318740
167.226328	5999.394513	7.957632	-0.000254	4.318754
167.224032	5999.369178	7.962637	-0.000253	4.318745
167.314969	5999.384990	7.967642	-0.000270	4.318757
167.289373	5999.361816	7.972646	-0.000266	4.318747
167.497583	5999.454266	7.977651	-0.000305	4.318793
167.380128	5999.326026	7.982656	-0.000283	4.318742
167.346699	5999.399490	7.987661	-0.000276	4.318764
167.352719	5999.402827	7.992666	-0.000277	4.318766
167.318379	5999.391646	7.997670	-0.000271	4.318759
167.272628	5999.403165	8.002675	-0.000262	4.318760
167.215551	5999.373738	8.007680	-0.000252	4.318746
167.137847	5999.392014	8.012685	-0.000237	4.318747
167.203620	5999.438967	8.017690	-0.000249	4.318767
167.149563	5999.369250	8.022694	-0.000239	4.318740
167.364029	5999.347873	8.027699	-0.000280	4.318748
167.363889	5999.372801	8.032704	-0.000280	4.318756
167.343073	5999.436220	8.037709	-0.000276	4.318776
167.273638	5999.319959	8.042714	-0.000263	4.318732
167.263111	5999.451285	8.047718	-0.000261	4.318776
167.377711	5999.305328	8.052723	-0.000282	4.318734
167.432343	5999.417343	8.057728	-0.000292	4.318776
167.250151	5999.355356	8.062733	-0.000258	4.318742
167.428665	5999.448552	8.067738	-0.000292	4.318787
167.342797	5999.337609	8.072742	-0.000276	4.318743
167.293623	5999.408869	8.077747	-0.000266	4.318763
167.274716	5999.416556	8.082752	-0.000263	4.318765
167.378778	5999.353976	8.087757	-0.000282	4.318751
167.318067	5999.388945	8.092762	-0.000271	4.318758
167.506624	5999.385037	8.097766	-0.000306	4.318771
167.392913	5999.376807	8.102771	-0.000285	4.318760
167.502970	5999.406097	8.107776	-0.000306	4.318778
167.423991	5999.368391	8.112781	-0.000291	4.318759
167.518939	5999.346468	8.117786	-0.000309	4.318758
167.402657	5999.385812	8.122790	-0.000287	4.318763
167.515754	5999.435669	8.127795	-0.000308	4.318788
167.593602	5999.357422	8.132800	-0.000323	4.318768
167.626080	5999.428016	8.137805	-0.000329	4.318794
167.512365	5999.383823	8.142810	-0.000307	4.318771
167.618090	5999.392819	8.147814	-0.000327	4.318781
167.596443	5999.334690	8.152819	-0.000323	4.318760
167.635575	5999.399266	8.157824	-0.000331	4.318785
167.486110	5999.349722	8.162829	-0.000302	4.318757
167.561999	5999.387159	8.167834	-0.000317	4.318775
167.575279	5999.343776	8.172838	-0.000319	4.318762
167.574441	5999.385450	8.177843	-0.000319	4.318776
167.562987	5999.354675	8.182848	-0.000317	4.318764
167.513473	5999.408486	8.187853	-0.000308	4.318779
167.560969	5999.356946	8.192858	-0.000317	4.318765
167.708268	5999.430002	8.197862	-0.000344	4.318800
167.518071	5999.342041	8.202867	-0.000308	4.318757
167.729231	5999.425569	8.207872	-0.000348	4.318800
167.670384	5999.390060	8.212877	-0.000337	4.318784
167.794165	5999.403539	8.217882	-0.000360	4.318797
167.590744	5999.363560	8.222886	-0.000322	4.318769
167.666508	5999.446210	8.227891	-0.000336	4.318803
167.789460	5999.297563	8.232896	-0.000359	4.318761
167.787785	5999.436242	8.237901	-0.000359	4.318808
167.705198	5999.343046	8.242906	-0.000344	4.318771
167.828273	5999.460878	8.247910	-0.000367	4.318819
167.794533	5999.316778	8.252915	-0.000360	4.318768
167.991297	5999.456838	8.257920	-0.000397	4.318830
167.816125	5999.340799	8.262925	-0.000364	4.318778
167.844936	5999.417702	8.267930	-0.000370	4.318806
167.716435	5999.409832	8.272934	-0.000346	4.318794
167.830525	5999.359886	8.277939	-0.000367	4.318785
167.758019	5999.423170	8.282944	-0.000354	4.318802
167.780955	5999.376823	8.287949	-0.000358	4.318787
167.698999	5999.418129	8.292954	-0.000342	4.318796
167.885815	5999.350039	8.297958	-0.000377	4.318786
167.836576	5999.389038	8.302963	-0.000368	4.318796
167.811321	5999.358414	8.307968	-0.000364	4.318783
167.805947	5999.394592	8.312973	-0.000363	4.318795
167.883697	5999.393828	8.317978	-0.000377	4.318801
167.815979	5999.377716	8.322982	-0.000364	4.318790
167.810391	5999.420395	8.327987	-0.000363	4.318804
167.832141	5999.383520	8.332992	-0.000367	4.318793
167.827984	5999.413909	8.337997	-0.000367	4.318803
167.845157	5999.388145	8.343002	-0.000370	4.318796
167.776190	5999.360309	8.348006	-0.000357	4.318782
167.742325	5999.420034	8.353011	-0.000351	4.318799
167.823571	5999.418531	8.358016	-0.000366	4.318805
167.816868	5999.393205	8.363021	-0.000365	4.318796
167.771430	5999.340106	8.368026	-0.000356	4.318774
167.815700	5999.376853	8.373030	-0.000364	4.318790
167.824168	5999.404572	8.378035	-0.000366	4.318800
167.707744	5999.388615	8.383040	-0.000344	4.318786
167.732286	5999.439678	8.388045	-0.000349	4.318805
167.902330	5999.369601	8.393050	-0.000381	4.318794
168.009547	5999.353384	8.398054	-0.000401	4.318796
167.857525	5999.363398	8.403059	-0.000372	4.318788
167.883602	5999.389238	8.408064	-0.000377	4.318799
167.723177	5999.386274	8.413069	-0.000347	4.318787
167.895097	5999.396029	8.418074	-0.000379	4.318802
167.895227	5999.459631	8.423078	-0.000379	4.318824
167.899937	5999.409760	8.428083	-0.000380	4.318807
168.024190	5999.365964	8.433088	-0.000403	4.318801
167.977404	5999.381391	8.438093	-0.000395	4.318803
167.806093	5999.407472	8.443098	-0.000363	4.318800
167.904534	5999.385733	8.448102	-0.000381	4.318799
168.032977	5999.346585	8.453107	-0.000405	4.318795
168.064199	5999.371337	8.458112	-0.000411	4.318806
168.022712	5999.429907	8.463117	-0.000403	4.318823
168.118685	5999.411457	8.468122	-0.000421	4.318823
168.041656	5999.359505	8.473126	-0.000407	4.318800
168.072932	5999.351047	8.478131	-0.000413	4.318800
167.999285	5999.442238	8.483136	-0.000399	4.318825
168.112691	5999.346328	8.488141	-0.000420	4.318801
167.944803	5999.448226	8.493146	-0.000389	4.318823
168.176543	5999.330060	8.498150	-0.000432	4.318800
168.127857	5999.410440	8.503155	-0.000423	4.318824
168.008292	5999.354571	8.508160	-0.000400	4.318796
167.900049	5999.457689	8.513165	-0.000380	4.318823
168.039722	5999.371902	8.518170	-0.000406	4.318804
168.036184	5999.336685	8.523174	-0.000406	4.318792
167.958371	5999.460112	8.528179	-0.000391	4.318828
168.132262	5999.330201	8.533184	-0.000424	4.318797
168.158258	5999.432600	8.538189	-0.000429	4.318833
168.027685	5999.347704	8.543194	-0.000404	4.318795
168.161216	5999.454107	8.548198	-0.000429	4.318841
168.021562	5999.362831	8.553203	-0.000403	4.318800
168.214881	5999.368062	8.558208	-0.000439	4.318816
168.235114	5999.416348	8.563213	-0.000443	4.318833
168.195827	5999.432955	8.568218	-0.000436	4.318836
168.069701	5999.341586	8.573223	-0.000412	4.318796
168.091921	5999.386685	8.578227	-0.000416	4.318813
168.177006	5999.412036	8.583232	-0.000432	4.318828
168.237316	5999.395594	8.588237	-0.000443	4.318827
168.212119	5999.350202	8.593242	-0.000439	4.318809
168.214650	5999.449263	8.598247	-0.000439	4.318843
168.198644	5999.344752	8.603251	-0.000436	4.318807
168.054072	5999.446330	8.608256	-0.000409	4.318831
168.086991	5999.357296	8.613261	-0.000415	4.318803
168.296486	5999.439336	8.618266	-0.000455	4.318846
168.168407	5999.326247	8.623271	-0.000430	4.318798
168.234135	5999.436843	8.628275	-0.000443	4.318840
168.039189	5999.349882	8.633280	-0.000406	4.318797
168.177538	5999.445122	8.638285	-0.000432	4.318839
168.151698	5999.350068	8.643290	-0.000427	4.318805
168.169566	5999.391477	8.648295	-0.000431	4.318820
168.205413	5999.440150	8.653299	-0.000437	4.318839
168.308983	5999.341708	8.658304	-0.000457	4.318813
168.186315	5999.433122	8.663309	-0.000434	4.318836
168.296261	5999.415407	8.668314	-0.000455	4.318837
168.068519	5999.340914	8.673319	-0.000412	4.318796
168.269688	5999.433014	8.678323	-0.000450	4.318842
168.274692	5999.394146	8.683328	-0.000450	4.318829
168.266908	5999.333084	8.688333	-0.000449	4.318807
168.209450	5999.393187	8.693338	-0.000438	4.318824
168.351331	5999.400074	8.698343	-0.000465	4.318836
168.387085	5999.398969	8.703347	-0.000472	4.318838
168.406332	5999.399510	8.708352	-0.000475	4.318840
168.282195	5999.419303	8.713357	-0.000452	4.318838
168.369095	5999.421216	8.718362	-0.000468	4.318845
168.225821	5999.356527	8.723367	-0.000441	4.318812
168.398722	5999.386364	8.728371	-0.000474	4.318835
168.303173	5999.423167	8.733376	-0.000456	4.318841
168.296574	5999.348021	8.738381	-0.000455	4.318815
168.357308	5999.406187	8.743386	-0.000466	4.318839
168.323240	5999.432757	8.748391	-0.000460	4.318845
168.195148	5999.339036	8.753395	-0.000436	4.318804
168.385455	5999.380870	8.758400	-0.000471	4.318832
168.430087	5999.387109	8.763405	-0.000480	4.318837
168.392024	5999.397002	8.768410	-0.000472	4.318838
168.367529	5999.403104	8.773415	-0.000468	4.318838
168.334227	5999.383402	8.778419	-0.000462	4.318829
168.294026	5999.410346	8.783424	-0.000454	4.318836
168.421281	5999.403726	8.788429	-0.000478	4.318842
168.403800	5999.372379	8.793434	-0.000475	4.318831
168.409374	5999.411777	8.798439	-0.000476	4.318844
168.402300	5999.396674	8.803443	-0.000474	4.318839
168.411827	5999.402037	8.808448	-0.000476	4.318841
168.237887	5999.418528	8.813453	-0.000444	4.318834
168.548002	5999.356643	8.818458	-0.000502	4.318836
168.503877	5999.443437	8.823463	-0.000493	4.318862
168.587810	5999.396180	8.828467	-0.000509	4.318852
168.407469	5999.390047	8.833472	-0.000475	4.318837
168.437191	5999.374541	8.838477	-0.000481	4.318834
168.429902	5999.394526	8.843482	-0.000480	4.318840
168.528168	5999.396802	8.848487	-0.000498	4.318848
168.327605	5999.402324	8.853491	-0.000460	4.318835
168.372781	5999.410293	8.858496	-0.000469	4.318841
168.396900	5999.393204	8.863501	-0.000473	4.318837
168.454282	5999.410581	8.868506	-0.000484	4.318847
168.378537	5999.404465	8.873511	-0.000470	4.318840
168.397722	5999.373665	8.878515	-0.000474	4.318831
168.485922	5999.444468	8.883520	-0.000490	4.318861
168.452288	5999.316017	8.888525	-0.000484	4.318815
168.378509	5999.409082	8.893530	-0.000470	4.318841
168.419430	5999.363541	8.898535	-0.000478	4.318829
168.397118	5999.385781	8.903539	-0.000473	4.318835
168.450574	5999.391077	8.908544	-0.000483	4.318840
168.372546	5999.393743	8.913549	-0.000469	4.318836
168.465730	5999.416460	8.918554	-0.000486	4.318850
168.443611	5999.444192	8.923559	-0.000482	4.318858
168.428036	5999.384776	8.928563	-0.000479	4.318837
168.434766	5999.399953	8.933568	-0.000480	4.318842
168.587955	5999.370327	8.938573	-0.000509	4.318843
168.642236	5999.366227	8.943578	-0.000519	4.318846
168.693611	5999.375653	8.948583	-0.000529	4.318852
168.546592	5999.467605	8.953587	-0.000501	4.318873
168.614017	5999.385105	8.958592	-0.000514	4.318850
168.688649	5999.377624	8.963597	-0.000528	4.318853
168.725807	5999.376222	8.968602	-0.000535	4.318855
168.730852	5999.439710	8.973607	-0.000536	4.318877
168.652605	5999.399078	8.978611	-0.000521	4.318857
168.633226	5999.369977	8.983616	-0.000518	4.318846
168.622250	5999.363998	8.988621	-0.000516	4.318843
168.601967	5999.430074	8.993626	-0.000512	4.318864
168.618965	5999.415413	8.998631	-0.000515	4.318861
168.589018	5999.362725	9.003635	-0.000509	4.318841
168.612004	5999.361553	9.008640	-0.000514	4.318842
168.529072	5999.458398	9.013645	-0.000498	4.318869
168.538602	5999.388141	9.018650	-0.000500	4.318846
168.637566	5999.366293	9.023655	-0.000519	4.318845
168.674098	5999.369634	9.028659	-0.000525	4.318849
168.684805	5999.451291	9.033664	-0.000527	4.318877
168.749435	5999.357393	9.038669	-0.000540	4.318850
168.813235	5999.416757	9.043674	-0.000552	4.318875
168.831862	5999.411896	9.048679	-0.000555	4.318875
168.741686	5999.360876	9.053683	-0.000538	4.318851
168.827025	5999.447041	9.058688	-0.000554	4.318886
168.631530	5999.370336	9.063693	-0.000517	4.318846
168.904268	5999.433475	9.068698	-0.000569	4.318887
168.935250	5999.328248	9.073703	-0.000574	4.318854
168.837291	5999.459626	9.078707	-0.000556	4.318891
168.781444	5999.354314	9.083712	-0.000546	4.318851
168.847335	5999.454735	9.088717	-0.000558	4.318890
168.829398	5999.340485	9.093722	-0.000555	4.318850
168.892348	5999.463662	9.098727	-0.000566	4.318896
168.846521	5999.323032	9.103731	-0.000558	4.318846
169.005015	5999.427850	9.108736	-0.000588	4.318892
168.963050	5999.424735	9.113741	-0.000580	4.318888
169.034547	5999.345062	9.118746	-0.000593	4.318866
168.867143	5999.473602	9.123751	-0.000562	4.318898
168.799431	5999.339444	9.128755	-0.000549	4.318848
168.782923	5999.460055	9.133760	-0.000546	4.318887
168.934430	5999.348709	9.138765	-0.000574	4.318861
168.916665	5999.406876	9.143770	-0.000571	4.318879
168.843860	5999.440715	9.148775	-0.000557	4.318885
168.709483	5999.360308	9.153779	-0.000532	4.318848
169.034077	5999.425394	9.158784	-0.000593	4.318894
168.947948	5999.376284	9.163789	-0.000577	4.318871
169.035442	5999.373462	9.168794	-0.000593	4.318876
169.042570	5999.423598	9.173799	-0.000595	4.318894
168.986860	5999.434456	9.178803	-0.000584	4.318893
169.025376	5999.359912	9.183808	-0.000591	4.318871
169.004232	5999.385594	9.188813	-0.000587	4.318878
168.867395	5999.462482	9.193818	-0.000562	4.318894
168.955168	5999.339713	9.198823	-0.000578	4.318859
168.848708	5999.424012	9.203827	-0.000558	4.318880
168.796977	5999.367629	9.208832	-0.000548	4.318857
168.934156	5999.417933	9.213837	-0.000574	4.318884
168.858197	5999.429383	9.218842	-0.000560	4.318882
168.901275	5999.335431	9.223847	-0.000568	4.318854
169.015136	5999.429399	9.228851	-0.000589	4.318894
168.986453	5999.398575	9.233856	-0.000584	4.318881
168.940629	5999.359387	9.238861	-0.000575	4.318865
168.992435	5999.436044	9.243866	-0.000585	4.318894
169.122433	5999.404868	9.248871	-0.000610	4.318893
169.126349	5999.434473	9.253875	-0.000610	4.318903
168.942374	5999.349796	9.258880	-0.000576	4.318861
168.891844	5999.394602	9.263885	-0.000566	4.318873
168.878218	5999.434372	9.268890	-0.000564	4.318886
168.794756	5999.407754	9.273895	-0.000548	4.318871
168.905259	5999.350267	9.278899	-0.000569	4.318859
168.969779	5999.432534	9.283904	-0.000581	4.318891
169.061176	5999.427964	9.288909	-0.000598	4.318896
169.017191	5999.405909	9.293914	-0.000590	4.318886
168.982475	5999.346850	9.298919	-0.000583	4.318863
168.989393	5999.416398	9.303923	-0.000585	4.318887
169.114805	5999.437836	9.308928	-0.000608	4.318904
169.075107	5999.417641	9.313933	-0.000601	4.318894
168.998474	5999.356379	9.318938	-0.000586	4.318868
169.081915	5999.403290	9.323943	-0.000602	4.318890
169.059144	5999.413639	9.328947	-0.000598	4.318891
168.936663	5999.439536	9.333952	-0.000575	4.318891
168.994989	5999.394004	9.338957	-0.000586	4.318880
169.035275	5999.381797	9.343962	-0.000593	4.318879
168.999116	5999.371920	9.348967	-0.000586	4.318873
169.002646	5999.425585	9.353971	-0.000587	4.318891
168.992284	5999.429620	9.358976	-0.000585	4.318892
169.138798	5999.441985	9.363981	-0.000613	4.318907
169.066597	5999.397307	9.368986	-0.000599	4.318886
169.038861	5999.363517	9.373991	-0.000594	4.318873
169.149297	5999.395499	9.378995	-0.000615	4.318892
169.132111	5999.421266	9.384000	-0.000611	4.318899
169.093003	5999.420313	9.389005	-0.000604	4.318896
169.206549	5999.415671	9.394010	-0.000625	4.318903
169.128279	5999.370432	9.399015	-0.000611	4.318882
169.161907	5999.414043	9.404019	-0.000617	4.318899
169.029100	5999.401547	9.409024	-0.000592	4.318885
169.103623	5999.440200	9.414029	-0.000606	4.318904
169.051665	5999.417064	9.419034	-0.000596	4.318892
169.140781	5999.387155	9.424039	-0.000613	4.318888
169.134802	5999.396719	9.429043	-0.000612	4.318891
169.027818	5999.378762	9.434048	-0.000592	4.318877
169.113510	5999.426121	9.439053	-0.000608	4.318900
169.126726	5999.424249	9.444058	-0.000610	4.318900
169.124769	5999.412674	9.449063	-0.000610	4.318896
169.154693	5999.441391	9.454067	-0.000616	4.318908
169.289301	5999.406474	9.459072	-0.000641	4.318906
169.264324	5999.398844	9.464077	-0.000636	4.318901
169.165526	5999.395756	9.469082	-0.000618	4.318893
169.090521	5999.417148	9.474087	-0.000604	4.318895
169.121196	5999.382074	9.479091	-0.000609	4.318885
169.203879	5999.414391	9.484096	-0.000625	4.318902
169.309088	5999.423501	9.489101	-0.000645	4.318913
169.303319	5999.426565	9.494106	-0.000643	4.318913
169.170705	5999.426017	9.499111	-0.000619	4.318904
169.143382	5999.366316	9.504115	-0.000613	4.318881
169.383067	5999.406015	9.509120	-0.000658	4.318912
169.398724	5999.422993	9.514125	-0.000661	4.318919
169.208267	5999.382108	9.519130	-0.000626	4.318891
169.264024	5999.404440	9.524135	-0.000636	4.318903
169.251878	5999.413464	9.529139	-0.000634	4.318905
169.195719	5999.427183	9.534144	-0.000623	4.318906
169.195430	5999.406955	9.539149	-0.000623	4.318899
169.350149	5999.424964	9.544154	-0.000652	4.318916
169.128428	5999.399911	9.549159	-0.000611	4.318892
169.235901	5999.392865	9.554163	-0.000631	4.318897
169.214981	5999.399132	9.559168	-0.000627	4.318898
169.379983	5999.401133	9.564173	-0.000658	4.318910
169.347764	5999.395035	9.569178	-0.000652	4.318906
169.353027	5999.401300	9.574183	-0.000653	4.318908
169.383671	5999.411420	9.579187	-0.000659	4.318914
169.257854	5999.423267	9.584192	-0.000635	4.318909
169.251128	5999.393334	9.589197	-0.000634	4.318898
169.372345	5999.423960	9.594202	-0.000656	4.318917
169.303690	5999.408965	9.599207	-0.000644	4.318907
169.354946	5999.407349	9.604211	-0.000653	4.318911
169.407844	5999.389709	9.609216	-0.000663	4.318908
169.350353	5999.430454	9.614221	-0.000652	4.318918
169.232201	5999.362291	9.619226	-0.000630	4.318886
169.401544	5999.401186	9.624231	-0.000662	4.318912
169.331502	5999.388329	9.629235	-0.000649	4.318902
169.444376	5999.395818	9.634240	-0.000670	4.318913
169.298441	5999.395319	9.639245	-0.000643	4.318902
169.336050	5999.424256	9.644250	-0.000650	4.318915
169.292822	5999.425096	9.649255	-0.000642	4.318912
169.318556	5999.404899	9.654259	-0.000646	4.318907
169.388904	5999.413081	9.659264	-0.000660	4.318915
169.467569	5999.400137	9.664269	-0.000674	4.318916
169.312480	5999.399728	9.669274	-0.000645	4.318905
169.369085	5999.402515	9.674279	-0.000656	4.318910
169.326554	5999.392141	9.679283	-0.000648	4.318903
169.466542	5999.410499	9.684288	-0.000674	4.318920
169.451372	5999.408173	9.689293	-0.000671	4.318918
169.433253	5999.419381	9.694298	-0.000668	4.318920
169.348323	5999.412439	9.699303	-0.000652	4.318912
169.444131	5999.416159	9.704307	-0.000670	4.318920
169.357821	5999.425186	9.709312	-0.000654	4.318917
169.339720	5999.381058	9.714317	-0.000650	4.318901
169.319649	5999.416657	9.719322	-0.000647	4.318911
169.334932	5999.406970	9.724327	-0.000649	4.318909
169.391600	5999.416200	9.729331	-0.000660	4.318916
169.367363	5999.419480	9.734336	-0.000655	4.318915
169.391525	5999.416215	9.739341	-0.000660	4.318916
169.478049	5999.393310	9.744346	-0.000676	4.318915
169.495387	5999.407166	9.749351	-0.000680	4.318920
169.508504	5999.398860	9.754355	-0.000682	4.318919
169.494783	5999.391616	9.759360	-0.000679	4.318915
169.587865	5999.412513	9.764365	-0.000697	4.318929
169.599290	5999.396264	9.769370	-0.000699	4.318924
169.570799	5999.399522	9.774375	-0.000694	4.318923
169.504640	5999.420888	9.779379	-0.000681	4.318926
169.478681	5999.426377	9.784384	-0.000676	4.318926
169.576260	5999.420501	9.789389	-0.000695	4.318931
169.565017	5999.409966	9.794394	-0.000693	4.318926
169.487950	5999.398594	9.799399	-0.000678	4.318917
169.528807	5999.411167	9.804403	-0.000686	4.318924
169.483496	5999.405069	9.809408	-0.000677	4.318919
169.623936	5999.417798	9.814413	-0.000704	4.318933
169.565490	5999.406178	9.819418	-0.000693	4.318925
169.419185	5999.407600	9.824423	-0.000665	4.318915
169.462451	5999.412286	9.829427	-0.000673	4.318920
169.614785	5999.407744	9.834432	-0.000702	4.318929
169.529129	5999.376976	9.839437	-0.000686	4.318913
169.560284	5999.433101	9.844442	-0.000692	4.318934
169.596373	5999.390425	9.849447	-0.000698	4.318922
169.588997	5999.409507	9.854451	-0.000697	4.318928
169.572643	5999.405587	9.859456	-0.000694	4.318925
169.523361	5999.396640	9.864461	-0.000685	4.318919
169.590837	5999.421107	9.869466	-0.000697	4.318932
169.545342	5999.405826	9.874471	-0.000689	4.318924
169.604065	5999.395255	9.879475	-0.000700	4.318924
169.598766	5999.411131	9.884480	-0.000699	4.318929
169.623545	5999.420647	9.889485	-0.000704	4.318934
169.648543	5999.417206	9.894490	-0.000708	4.318935
169.654743	5999.397451	9.899495	-0.000709	4.318929
169.701999	5999.425271	9.904499	-0.000718	4.318941
169.713312	5999.402590	9.909504	-0.000720	4.318935
169.744013	5999.418232	9.914509	-0.000726	4.318942
169.583107	5999.400608	9.919514	-0.000696	4.318925
169.587264	5999.424630	9.924519	-0.000697	4.318933
169.551886	5999.416432	9.929523	-0.000690	4.318928
169.664755	5999.398101	9.934528	-0.000711	4.318930
169.633959	5999.397234	9.939533	-0.000706	4.318927
169.670132	5999.406186	9.944538	-0.000712	4.318933
169.600144	5999.403461	9.949543	-0.000699	4.318927
169.685217	5999.415908	9.954547	-0.000715	4.318937
169.555327	5999.409248	9.959552	-0.000691	4.318925
169.653816	5999.410558	9.964557	-0.000709	4.318933
169.705501	5999.391330	9.969562	-0.000719	4.318930
169.943417	5999.412039	9.974567	-0.000764	4.318954
169.717908	5999.398851	9.979571	-0.000721	4.318934
169.644220	5999.418121	9.984576	-0.000707	4.318935
169.494260	5999.394493	9.989581	-0.000679	4.318916
169.592962	5999.411436	9.994586	-0.000698	4.318929
169.573417	5999.402657	9.999591	-0.000694	4.318925
169.654580	5999.410397	10.004595	-0.000709	4.318933
169.687626	5997.496355	10.009600	-0.000715	4.318287
169.730692	5991.598198	10.014605	-0.000722	4.316293
169.712375	5985.589541	10.019610	-0.000717	4.314256
169.733792	5979.576230	10.024615	-0.000719	4.312219
169.565912	5973.597620	10.029619	-0.000686	4.310180
169.564279	5967.583862	10.034624	-0.000685	4.308139
169.438989	5961.573478	10.039629	-0.000660	4.306090
169.407721	5955.543263	10.044634	-0.000652	4.304039
169.356840	5949.551342	10.049639	-0.000641	4.302000
169.418434	5943.541091	10.054643	-0.000651	4.299961
169.214620	5937.554424	10.059648	-0.000612	4.297910
169.256163	5931.537648	10.064653	-0.000618	4.295866
169.255019	5925.527327	10.069658	-0.000616	4.293820
169.178754	5919.503839	10.074663	-0.000600	4.291763
169.110586	5913.528256	10.079667	-0.000586	4.289722
169.010613	5907.511079	10.084672	-0.000566	4.287663
168.971821	5901.538647	10.089677	-0.000557	4.285623
169.170930	5895.453182	10.094682	-0.000593	4.283561
168.952095	5889.528711	10.099687	-0.000550	4.281522
168.858350	5883.478893	10.104691	-0.000531	4.279449
168.876003	5877.487596	10.109696	-0.000533	4.277403
168.733942	5871.481432	10.114701	-0.000505	4.275339
168.756779	5865.462856	10.119706	-0.000508	4.273282
168.722452	5859.480444	10.124711	-0.000500	4.271232
168.619356	5853.443708	10.129715	-0.000479	4.269157
168.633737	5847.452066	10.134720	-0.000480	4.267106
168.643832	5841.473332	10.139725	-0.000481	4.265058
168.636925	5835.407377	10.144730	-0.000478	4.262977
168.543037	5829.443233	10.149735	-0.000459	4.260924
168.628744	5823.430466	10.154739	-0.000473	4.258867
168.452873	5817.434411	10.159744	-0.000439	4.256795
168.454394	5811.419317	10.164749	-0.000438	4.254728
168.333534	5805.415487	10.169754	-0.000413	4.252655
168.474079	5799.395199	10.174759	-0.000438	4.250595
168.333170	5793.412501	10.179763	-0.000410	4.248527
168.354576	5787.397552	10.184768	-0.000413	4.246458
168.251067	5781.375498	10.189773	-0.000392	4.244376
168.320123	5775.382346	10.194778	-0.000404	4.242316
168.057534	5769.380008	10.199783	-0.000353	4.240227
168.134318	5763.346690	10.204787	-0.000366	4.238152
167.973390	5757.397017	10.209792	-0.000334	4.236087
167.943474	5751.349433	10.214797	-0.000327	4.233996
167.837000	5745.355886	10.219802	-0.000305	4.231918
167.712191	5739.353075	10.224807	-0.000281	4.229834
167.750029	5733.338508	10.229811	-0.000286	4.227757
167.822018	5727.333852	10.234816	-0.000298	4.225686
167.688569	5721.320239	10.239821	-0.000272	4.223594
167.601435	5715.340085	10.244826	-0.000254	4.221517
167.489588	5709.307964	10.249831	-0.000231	4.219419
167.521863	5703.301324	10.254835	-0.000236	4.217339
167.493788	5697.323475	10.259840	-0.000229	4.215264
167.591391	5691.286804	10.264845	-0.000246	4.213177
167.354833	5685.303127	10.269850	-0.000200	4.211082
167.347613	5679.287382	10.274855	-0.000197	4.208992
167.263408	5673.316718	10.279859	-0.000180	4.206911
167.308119	5667.258712	10.284864	-0.000187	4.204808
167.286719	5661.271229	10.289869	-0.000181	4.202724
167.245848	5655.281153	10.294874	-0.000172	4.200636
167.188544	5649.258256	10.299879	-0.000160	4.198535
167.219791	5643.266334	10.304883	-0.000164	4.196450
167.096012	5637.240886	10.309888	-0.000140	4.194340
167.109549	5631.224856	10.314893	-0.000141	4.192243
166.996500	5625.248791	10.319898	-0.000118	4.190150
167.059853	5619.240274	10.324903	-0.000128	4.188057
166.955376	5613.250476	10.329907	-0.000107	4.185958
167.012101	5607.202073	10.334912	-0.000116	4.183849
166.856609	5601.227902	10.339917	-0.000086	4.181748
166.677924	5595.224469	10.344922	-0.000051	4.179635
166.615756	5589.186660	10.349927	-0.000038	4.177517
166.719967	5583.185364	10.354931	-0.000056	4.175424
166.512906	5577.194830	10.359936	-0.000015	4.173309
166.515575	5571.200786	10.364941	-0.000014	4.171209
166.399759	5565.172079	10.369946	0.000009	4.169086
166.355715	5559.180308	10.374951	0.000019	4.166980
166.350571	5553.138441	10.379955	0.000021	4.164859
166.460751	5547.125446	10.384960	0.000002	4.162756
166.035494	5541.191594	10.389965	0.000083	4.160638
166.014383	5535.155456	10.394970	0.000089	4.158514
165.872756	5529.162699	10.399975	0.000117	4.156396
165.759464	5523.132121	10.404979	0.000139	4.154265
165.730197	5517.149682	10.409984	0.000146	4.152156
165.764407	5511.109094	10.414989	0.000141	4.150031
165.724006	5505.132616	10.419994	0.000151	4.147921
165.778182	5499.138836	10.424999	0.000142	4.145812
165.595766	5493.091565	10.430003	0.000178	4.143664
165.508528	5487.109217	10.435008	0.000195	4.141545
165.560435	5481.094228	10.440013	0.000187	4.139425
165.556319	5475.132019	10.445018	0.000189	4.137318
165.449939	5469.076713	10.450023	0.000211	4.135169
165.329689	5463.091266	10.455027	0.000235	4.133042
165.312134	5457.086652	10.460032	0.000240	4.130916
165.292222	5451.057462	10.465037	0.000245	4.128780
165.122240	5445.088233	10.470042	0.000278	4.126651
165.307163	5439.026024	10.475047	0.000245	4.124517
165.147982	5433.089655	10.480051	0.000276	4.122399
165.010527	5427.028330	10.485056	0.000304	4.120238
164.811116	5421.051991	10.490061	0.000343	4.118100
164.817894	5415.059310	10.495066	0.000343	4.115972
164.854637	5409.015495	10.500071	0.000337	4.113827
164.783847	5403.019436	10.505075	0.000352	4.111690
164.448437	5397.031406	10.510080	0.000417	4.109532
164.412843	5391.048618	10.515085	0.000425	4.107400
164.351288	5384.977576	10.520090	0.000438	4.105233
164.448011	5378.969194	10.525095	0.000421	4.103100
164.353703	5372.990808	10.530099	0.000440	4.100961
164.392094	5366.976561	10.535104	0.000435	4.098819
164.318787	5361.006682	10.540109	0.000450	4.096683
164.060257	5354.969496	10.545114	0.000500	4.094506
164.060646	5348.977795	10.550119	0.000501	4.092366
164.045453	5342.975329	10.555123	0.000506	4.090219
164.033893	5336.951625	10.560128	0.000509	4.088064
164.013321	5330.974166	10.565133	0.000515	4.085924
163.615342	5324.934660	10.570138	0.000591	4.083729
163.694436	5318.943376	10.575143	0.000577	4.081589
163.672988	5312.916444	10.580147	0.000583	4.079428
163.669296	5306.973072	10.585152	0.000585	4.077296
163.488530	5300.899513	10.590157	0.000621	4.075102
163.648984	5294.927331	10.595162	0.000592	4.072972
163.510329	5288.883657	10.600167	0.000619	4.070790
163.574940	5282.905040	10.605171	0.000609	4.068647
163.451200	5276.919135	10.610176	0.000633	4.066485
163.450418	5270.888151	10.615181	0.000635	4.064315
163.344723	5264.885470	10.620186	0.000656	4.062146
163.283533	5258.877498	10.625191	0.000669	4.059978
162.976517	5252.914854	10.630195	0.000728	4.057804
162.926480	5246.864070	10.635200	0.000739	4.055618
162.837723	5240.841108	10.640205	0.000758	4.053438
162.857928	5234.866245	10.645210	0.000755	4.051284
162.639889	5228.851225	10.650215	0.000798	4.049094
162.757090	5222.864616	10.655219	0.000777	4.046941
162.780655	5216.828613	10.660224	0.000774	4.044761
162.725549	5210.853824	10.665229	0.000786	4.042596
162.603425	5204.813306	10.670234	0.000810	4.040400
162.524992	5198.836656	10.675239	0.000827	4.038229
162.450730	5192.832128	10.680243	0.000842	4.036048
162.337516	5186.802060	10.685248	0.000865	4.033853
162.203768	5180.820562	10.690253	0.000891	4.031673
162.091057	5174.797885	10.695258	0.000914	4.029478
162.092510	5168.824118	10.700263	0.000915	4.027309
162.113893	5162.779312	10.705267	0.000913	4.025115
161.929906	5156.824429	10.710272	0.000949	4.022936
161.926047	5150.763786	10.715277	0.000951	4.020731
161.723369	5144.773578	10.720282	0.000990	4.018535
161.575181	5138.780838	10.725287	0.001020	4.016341
161.441017	5132.735023	10.730291	0.001046	4.014127
161.594539	5126.757902	10.735296	0.001019	4.011962
161.542873	5120.728508	10.740301	0.001030	4.009759
161.559703	5114.782187	10.745306	0.001029	4.007591
161.419022	5108.723027	10.750311	0.001056	4.005367
161.482213	5102.728752	10.755315	0.001046	4.003184
161.269333	5096.722381	10.760320	0.001087	4.000970
161.217960	5090.708725	10.765325	0.001099	3.998767
161.081213	5084.734729	10.770330	0.001126	3.996570
161.132721	5078.713733	10.775335	0.001118	3.994370
161.043908	5072.706122	10.780339	0.001136	3.992163
160.977265	5066.683013	10.785344	0.001150	3.989950
160.944283	5060.702997	10.790349	0.001157	3.987754
161.043185	5054.672145	10.795354	0.001140	3.985551
160.914423	5048.682276	10.800359	0.001166	3.983341
160.828435	5042.688215	10.805363	0.001184	3.981132
160.725097	5036.665105	10.810368	0.001204	3.978910
160.641539	5030.703539	10.815373	0.001222	3.976711
160.529950	5024.631479	10.820378	0.001244	3.974467
160.677428	5018.656593	10.825383	0.001218	3.972281
160.494644	5012.634542	10.830387	0.001254	3.970047
160.541439	5006.652038	10.835392	0.001246	3.967847
160.252190	5000.641844	10.840397	0.001302	3.965605
160.123928	4994.674709	10.845402	0.001328	3.963393
159.980736	4988.602058	10.850407	0.001356	3.961139
159.961412	4982.614967	10.855411	0.001361	3.958926
159.946756	4976.604781	10.860416	0.001365	3.956704
159.910610	4970.602263	10.865421	0.001374	3.954481
159.879639	4964.598525	10.870426	0.001381	3.952257
159.804702	4958.605312	10.875431	0.001397	3.950032
159.704428	4952.597129	10.880435	0.001417	3.947798
159.858498	4946.571976	10.885440	0.001389	3.945579
159.595331	4940.598673	10.890445	0.001440	3.943341
159.672083	4934.548301	10.895450	0.001427	3.941103
159.398673	4928.577695	10.900455	0.001480	3.938862
159.415854	4922.574524	10.905459	0.001478	3.936634
159.217397	4916.530760	10.910464	0.001517	3.934370
158.893090	4910.560241	10.915469	0.001579	3.932121
158.856011	4904.547744	10.920474	0.001588	3.929881
159.021840	4898.546067	10.925479	0.001558	3.927661
158.783393	4892.511769	10.930483	0.001605	3.925392
158.892742	4886.529631	10.935488	0.001585	3.923173
158.775179	4880.485823	10.940493	0.001609	3.920908
158.982023	4874.505356	10.945498	0.001572	3.918695
158.817526	4868.526648	10.950503	0.001604	3.916448
158.758796	4862.478286	10.955507	0.001617	3.914184
158.449262	4856.503231	10.960512	0.001676	3.911922
158.287352	4850.504429	10.965517	0.001708	3.909664
158.204654	4844.490005	10.970522	0.001725	3.907406
158.277232	4838.465681	10.975527	0.001713	3.905157
158.017117	4832.491228	10.980531	0.001763	3.902895
158.198028	4826.472571	10.985536	0.001731	3.900655
158.032470	4820.479748	10.990541	0.001763	3.898393
158.126037	4814.453370	10.995546	0.001747	3.896139
158.034729	4808.467024	11.000551	0.001766	3.893883
157.957306	4802.474170	11.005555	0.001782	3.891624
157.653547	4796.429459	11.010560	0.001840	3.889324
157.615135	4790.459963	11.015565	0.001849	3.887075
157.490983	4784.416972	11.020570	0.001874	3.884789
157.593199	4778.405309	11.025575	0.001856	3.882534
157.462905	4772.416513	11.030579	0.001882	3.880266
157.615504	4766.422685	11.035584	0.001855	3.878020
157.372848	4760.393912	11.040589	0.001902	3.875723
157.478396	4754.401162	11.045594	0.001884	3.873470
157.275976	4748.395416	11.050599	0.001923	3.871183
157.337704	4742.412106	11.055603	0.001913	3.868927
157.282957	4736.374932	11.060608	0.001925	3.866639
156.948764	4730.427125	11.065613	0.001989	3.864358
156.667641	4724.348802	11.070618	0.002043	3.862030
156.766088	4718.364900	11.075623	0.002026	3.859773
156.751847	4712.365177	11.080627	0.002030	3.857497
156.709679	4706.345414	11.085632	0.002040	3.855210
156.597870	4700.351290	11.090637	0.002062	3.852924
156.574581	4694.349694	11.095642	0.002068	3.850643
156.611901	4688.294861	11.100647	0.002063	3.848346
156.527406	4682.331902	11.105651	0.002080	3.846071
156.503567	4676.316547	11.110656	0.002086	3.843780
156.469539	4670.326979	11.115661	0.002094	3.841497
155.941512	4664.345666	11.120666	0.002194	3.839169
155.959386	4658.312917	11.125671	0.002192	3.836872
155.754708	4652.296185	11.130675	0.002232	3.834558
155.791904	4646.283927	11.135680	0.002227	3.832268
155.770121	4640.271849	11.140685	0.002232	3.829970
155.919977	4634.302611	11.145690	0.002206	3.827704
155.897460	4628.272563	11.150695	0.002211	3.825397
155.912084	4622.276945	11.155699	0.002210	3.823105
155.764191	4616.259971	11.160704	0.002239	3.820788
155.386277	4610.288301	11.165709	0.002312	3.818465
155.069068	4604.265462	11.170714	0.002373	3.816127
155.476615	4598.250380	11.175719	0.002298	3.813860
155.218015	4592.234253	11.180723	0.002348	3.811527
155.128564	4586.264411	11.185728	0.002366	3.809227
154.890052	4580.232128	11.190733	0.002412	3.806887
154.886610	4574.234442	11.195738	0.002414	3.804581
154.823418	4568.206594	11.200743	0.002428	3.802257
154.889089	4562.224129	11.205747	0.002417	3.799961
154.768617	4556.204971	11.210752	0.002441	3.797632
154.738329	4550.218078	11.215757	0.002448	3.795322
154.359589	4544.202093	11.220762	0.002521	3.792966
154.377432	4538.187959	11.225767	0.002519	3.790648
154.476055	4532.185586	11.230771	0.002502	3.788340
154.598335	4526.179287	11.235776	0.002480	3.786032
154.509064	4520.176285	11.240781	0.002499	3.783703
154.375580	4514.179225	11.245786	0.002525	3.781371
154.235044	4508.196568	11.250791	0.002553	3.779043
153.859650	4502.186330	11.255795	0.002625	3.776679
153.860477	4496.133888	11.260800	0.002626	3.774334
153.708215	4490.169563	11.265805	0.002656	3.772007
153.702762	4484.139895	11.270810	0.002659	3.769667
153.607985	4478.150117	11.275815	0.002678	3.767333
153.576514	4472.118427	11.280819	0.002686	3.764987
153.578511	4466.124641	11.285824	0.002687	3.762658
153.525899	4460.104995	11.290829	0.002698	3.760311
153.497601	4454.139141	11.295834	0.002705	3.757987
153.112703	4448.120313	11.300839	0.002779	3.755606
152.799440	4442.126647	11.305843	0.002839	3.753239
152.769911	4436.094026	11.310848	0.002846	3.750885
152.917955	4430.091505	11.315853	0.002820	3.748557
152.885564	4424.097522	11.320858	0.002827	3.746214
152.757097	4418.090880	11.325863	0.002853	3.743855
152.755134	4412.054440	11.330867	0.002855	3.741496
152.634440	4406.106969	11.335872	0.002879	3.739158
152.460811	4400.047510	11.340877	0.002913	3.736769
152.670004	4394.077349	11.345882	0.002875	3.734452
152.566163	4388.023833	11.350887	0.002896	3.732069
152.644743	4382.090253	11.355891	0.002883	3.729751
152.515484	4376.023852	11.360896	0.002908	3.727358
152.512564	4370.031813	11.365901	0.002911	3.725005
152.189015	4364.046544	11.370906	0.002973	3.722621
152.197047	4358.003020	11.375911	0.002973	3.720246
152.041934	4352.032711	11.380915	0.003003	3.717882
151.981294	4346.040589	11.385920	0.003016	3.715518
151.750410	4339.999882	11.390925	0.003061	3.713116
151.735809	4334.014864	11.395930	0.003065	3.710755
151.671735	4328.005152	11.400935	0.003079	3.708379
151.779789	4321.978242	11.405939	0.003060	3.706011
151.512284	4316.009338	11.410944	0.003112	3.703627
151.503716	4309.988378	11.415949	0.003115	3.701248
151.298279	4303.980685	11.420954	0.003155	3.698851
151.239385	4297.981226	11.425959	0.003167	3.696472
151.024748	4291.980674	11.430963	0.003209	3.694074
151.212292	4285.936827	11.435968	0.003175	3.691699
150.989051	4279.975514	11.440973	0.003219	3.689313
151.096353	4273.959183	11.445978	0.003200	3.686938
151.028927	4267.931065	11.450983	0.003214	3.684538
151.048927	4261.931557	11.455987	0.003212	3.682157
150.852709	4255.946829	11.460992	0.003250	3.679759
150.833711	4249.949477	11.465997	0.003255	3.677372
150.398977	4243.927526	11.471002	0.003338	3.674931
150.385380	4237.917933	11.476007	0.003342	3.672536
150.321879	4231.919664	11.481011	0.003356	3.670139
150.494352	4225.889448	11.486016	0.003325	3.667752
150.327358	4219.899174	11.491021	0.003358	3.665345
150.408354	4213.880840	11.496026	0.003344	3.662951
150.117972	4207.924215	11.501031	0.003400	3.660541
149.978876	4201.906726	11.506035	0.003428	3.658120
149.931816	4195.836680	11.511040	0.003438	3.655687
149.757244	4189.900422	11.516045	0.003472	3.653293
149.762506	4183.857611	11.521050	0.003473	3.650872
149.893890	4177.879502	11.526055	0.003449	3.648490
149.648111	4171.830449	11.531059	0.003497	3.646038
149.600764	4165.864650	11.536064	0.003507	3.643638
149.613437	4159.830477	11.541069	0.003507	3.641216
149.602178	4153.868659	11.546074	0.003510	3.638818
149.459117	4147.822480	11.551079	0.003538	3.636372
149.133176	4141.864525	11.556083	0.003601	3.633940
148.887490	4135.803784	11.561088	0.003649	3.631473
148.922784	4129.835853	11.566093	0.003644	3.629071
148.731246	4123.813419	11.571098	0.003681	3.626623
148.842876	4117.820388	11.576103	0.003662	3.624216
148.753951	4111.773938	11.581107	0.003680	3.621765
148.724287	4105.816535	11.586112	0.003687	3.619354
148.544773	4099.761847	11.591117	0.003722	3.616887
148.586518	4093.781496	11.596122	0.003716	3.614471
148.270251	4087.739342	11.601127	0.003776	3.611991
148.246658	4081.741869	11.606131	0.003782	3.609559
147.963905	4075.712500	11.611136	0.003837	3.607084
148.022835	4069.719285	11.616141	0.003827	3.604658
147.702716	4063.707378	11.621146	0.003889	3.602183
147.753373	4057.716039	11.626151	0.003881	3.599754
147.665798	4051.676780	11.631155	0.003899	3.597290
147.562397	4045.717972	11.636160	0.003920	3.594854
147.551846	4039.653729	11.641165	0.003923	3.592384
147.698162	4033.690238	11.646170	0.003897	3.589970
147.415120	4027.687657	11.651175	0.003952	3.587492
147.164115	4021.680917	11.656179	0.004000	3.585015
147.174394	4015.645453	11.661184	0.004000	3.582552
147.231989	4009.681091	11.666189	0.003991	3.580121
147.100741	4003.644670	11.671194	0.004017	3.577639
146.991164	3997.655599	11.676199	0.004039	3.575177
146.732770	3991.643741	11.681203	0.004089	3.572688
146.697506	3985.664766	11.686208	0.004097	3.570235
146.782242	3979.616275	11.691213	0.004082	3.567764
146.624284	3973.652204	11.696218	0.004114	3.565301
146.567679	3967.597047	11.701223	0.004126	3.562809
146.594072	3961.639613	11.706227	0.004122	3.560364
146.316278	3955.606806	11.711232	0.004176	3.557854
146.189752	3949.609536	11.716237	0.004201	3.555373
146.120546	3943.570962	11.721242	0.004215	3.552879
146.080863	3937.625779	11.726247	0.004224	3.550425
146.093980	3931.573021	11.731251	0.004223	3.547932
146.041436	3925.610076	11.736256	0.004235	3.545466
145.853310	3919.548320	11.741261	0.004272	3.542943
145.815121	3913.599082	11.746266	0.004280	3.540481
145.767628	3907.544001	11.751271	0.004291	3.537972
145.911060	3901.574307	11.756275	0.004265	3.535518
145.464400	3895.574760	11.761280	0.004350	3.532985
145.179610	3889.566633	11.766285	0.004405	3.530464
145.105011	3883.512024	11.771290	0.004421	3.527946
145.211304	3877.551047	11.776295	0.004402	3.525484
145.263810	3871.498076	11.781299	0.004394	3.522977
145.140513	3865.558811	11.786304	0.004419	3.520496
145.045784	3859.502797	11.791309	0.004438	3.517967
145.019405	3853.528120	11.796314	0.004444	3.515478
144.996184	3847.497627	11.801319	0.004450	3.512965
145.142127	3841.518931	11.806323	0.004424	3.510490
144.938070	3835.472965	11.811328	0.004464	3.507946
145.032499	3829.509089	11.816333	0.004448	3.505468
145.080527	3823.466191	11.821338	0.004440	3.502950
144.735991	3817.557133	11.826343	0.004506	3.500442
144.334341	3811.464863	11.831347	0.004583	3.497850
144.415454	3805.480699	11.836352	0.004570	3.495355
144.251759	3799.443786	11.841357	0.004602	3.492808
144.206426	3793.500078	11.846362	0.004612	3.490312
144.071646	3787.433719	11.851367	0.004639	3.487752
143.989822	3781.471355	11.856371	0.004655	3.485241
143.835924	3775.419857	11.861376	0.004686	3.482682
143.955820	3769.458513	11.866381	0.004665	3.480190
143.875697	3763.433794	11.871386	0.004681	3.477647
144.033672	3757.421745	11.876391	0.004653	3.475134
143.857184	3751.417849	11.881395	0.004688	3.472585
143.964752	3745.436992	11.886400	0.004669	3.470076
143.790067	3739.411157	11.891405	0.004703	3.467514
143.738713	3733.416291	11.896410	0.004714	3.464977
143.603026	3727.386679	11.901415	0.004741	3.462415
143.204650	3721.430730	11.906419	0.004818	3.459851
143.070127	3715.393686	11.911424	0.004844	3.457281
143.077598	3709.396298	11.916429	0.004844	3.454743
142.922319	3703.359209	11.921434	0.004875	3.452167
143.087396	3697.373445	11.926439	0.004846	3.449647
142.990717	3691.369129	11.931443	0.004865	3.447088
142.968803	3685.370258	11.936448	0.004871	3.444538
142.668488	3679.400356	11.941453	0.004929	3.441966
142.396545	3673.369362	11.946458	0.004981	3.439370
142.417139	3667.338718	11.951463	0.004979	3.436805
142.353086	3661.362065	11.956467	0.004992	3.434252
142.248996	3655.337869	11.961472	0.005013	3.431672
142.246429	3649.327070	11.966477	0.005015	3.429108
142.143797	3643.332800	11.971482	0.005036	3.426537
142.103539	3637.321621	11.976487	0.005045	3.423964
141.903610	3631.330988	11.981491	0.005084	3.421379
141.951532	3625.291630	11.986496	0.005077	3.418801
141.908020	3619.325612	11.991501	0.005086	3.416241
141.895472	3613.286403	11.996506	0.005090	3.413652
141.906555	3607.319521	12.001511	0.005089	3.411094
141.634442	3601.289485	12.006515	0.005142	3.408474
141.554298	3595.265221	12.011520	0.005159	3.405877
141.588929	3589.287353	12.016525	0.005153	3.403312
141.375515	3583.286478	12.021530	0.005195	3.400705
141.395762	3577.250614	12.026535	0.005193	3.398109
141.170652	3571.299277	12.031539	0.005236	3.395519
140.948732	3565.272822	12.036544	0.005280	3.392894
140.857244	3559.243371	12.041549	0.005298	3.390282
140.860079	3553.249675	12.046554	0.005299	3.387694
140.817977	3547.221693	12.051559	0.005309	3.385084
140.716912	3541.278178	12.056563	0.005329	3.382501
140.648616	3535.232131	12.061568	0.005343	3.379876
140.551161	3529.239952	12.066573	0.005363	3.377269
140.478917	3523.195797	12.071578	0.005378	3.374640
140.565228	3517.227571	12.076583	0.005363	3.372062
140.587875	3511.200282	12.081587	0.005361	3.369448
140.595902	3505.209724	12.086592	0.005361	3.366846
140.349910	3499.194511	12.091597	0.005408	3.364200
139.974931	3493.255827	12.096602	0.005480	3.361571
139.709204	3487.161229	12.101607	0.005531	3.358884
139.866447	3481.196809	12.106611	0.005503	3.356304
139.724380	3475.148425	12.111616	0.005532	3.353648
139.971791	3469.181684	12.116621	0.005487	3.351073
139.560490	3463.182781	12.121626	0.005565	3.348403
139.646026	3457.166106	12.126631	0.005551	3.345782
139.531620	3451.135658	12.131635	0.005574	3.343129
139.452199	3445.188664	12.136640	0.005590	3.340515
138.984661	3439.163842	12.141645	0.005679	3.337818
138.855436	3433.152847	12.146650	0.005705	3.335165
138.721007	3427.145313	12.151655	0.005732	3.332512
138.804779	3421.111476	12.156659	0.005718	3.329871
138.691930	3415.122468	12.161664	0.005740	3.327224
138.795106	3409.112582	12.166669	0.005722	3.324592
138.601425	3403.150128	12.171674	0.005760	3.321942
138.456148	3397.098962	12.176679	0.005789	3.319257
138.136802	3391.139771	12.181683	0.005850	3.316589
137.882786	3385.107136	12.186688	0.005899	3.313895
137.803929	3379.097491	12.191693	0.005916	3.311230
137.883089	3373.086467	12.196698	0.005902	3.308582
137.720317	3367.084010	12.201703	0.005934	3.305905
137.738140	3361.069556	12.206707	0.005933	3.303244
137.743318	3355.066312	12.211712	0.005933	3.300583
137.791704	3349.093733	12.216717	0.005925	3.297940
137.673228	3343.044266	12.221722	0.005949	3.295239
137.629755	3337.075615	12.226727	0.005959	3.292582
137.548161	3331.051671	12.231731	0.005976	3.289893
137.508912	3325.045996	12.236736	0.005984	3.287215
137.385457	3319.019255	12.241741	0.006009	3.284515
137.334485	3313.079277	12.246746	0.006020	3.281861
137.280861	3306.998686	12.251751	0.006032	3.279141
137.254237	3301.030157	12.256755	0.006038	3.276473
137.187359	3295.019928	12.261760	0.006052	3.273779
137.192547	3289.038245	12.266765	0.006053	3.271104
137.060303	3283.012523	12.271770	0.006079	3.268390
136.944778	3277.017094	12.276775	0.006102	3.265690
136.801027	3271.011025	12.281779	0.006131	3.262979
136.752003	3264.990806	12.286784	0.006141	3.260271
136.645366	3259.007252	12.291789	0.006163	3.257570
136.487973	3252.996615	12.296794	0.006194	3.254848
136.548812	3246.970015	12.301799	0.006184	3.252145
136.227806	3241.005653	12.306803	0.006246	3.249418
135.933570	3234.964760	12.311808	0.006302	3.246659
135.939548	3228.970349	12.316813	0.006303	3.243956
135.919429	3222.963472	12.321818	0.006308	3.241242
135.831976	3216.953881	12.326823	0.006326	3.238516
135.825444	3210.944273	12.331827	0.006329	3.235798
135.640239	3204.968614	12.336832	0.006365	3.233070
135.607724	3198.925584	12.341837	0.006372	3.230329
135.684255	3192.929538	12.346842	0.006360	3.227621
135.667962	3186.908595	12.351847	0.006364	3.224887
135.629239	3180.947976	12.356851	0.006373	3.222176
135.279658	3174.934354	12.361856	0.006440	3.219397
135.088009	3168.939240	12.366861	0.006477	3.216646
135.167472	3162.875843	12.371866	0.006464	3.213896
135.279857	3156.923227	12.376871	0.006444	3.211198
135.282004	3150.887387	12.381875	0.006445	3.208446
135.135610	3144.891806	12.386880	0.006474	3.205691
135.016260	3138.891652	12.391885	0.006498	3.202934
135.087036	3132.877630	12.396890	0.006486	3.200194
134.842032	3126.898743	12.401895	0.006534	3.197426
134.726381	3120.877767	12.406899	0.006557	3.194654
134.448101	3114.896603	12.411904	0.006611	3.191875
134.358043	3108.846910	12.416909	0.006629	3.189088
134.249006	3102.848120	12.421914	0.006651	3.186319
134.213347	3096.870132	12.426919	0.006659	3.183567
134.174085	3090.837310	12.431923	0.006668	3.180787
134.221995	3084.857173	12.436928	0.006661	3.178040
134.199690	3078.819136	12.441933	0.006666	3.175255
134.006461	3072.849292	12.446938	0.006704	3.172476
133.791236	3066.834353	12.451943	0.006746	3.169671
133.492919	3060.840098	12.456947	0.006803	3.166862
133.491926	3054.804485	12.461952	0.006805	3.164071
133.347756	3048.837877	12.466957	0.006834	3.161290
133.179784	3042.808042	12.471962	0.006867	3.158474
133.159441	3036.790720	12.476967	0.006872	3.155682
133.252566	3030.798299	12.481971	0.006856	3.152913
133.271675	3024.770067	12.486976	0.006854	3.150116
133.276121	3018.784324	12.491981	0.006855	3.147334
133.209803	3012.776125	12.496986	0.006868	3.144529
133.059989	3006.808967	12.501991	0.006898	3.141730
132.678172	3000.797481	12.506995	0.006971	3.138876
132.579618	2994.744093	12.512000	0.006991	3.136039
132.600073	2988.799277	12.517005	0.006989	3.133266
132.505556	2982.740283	12.522010	0.007008	3.130421
132.428789	2976.767731	12.527015	0.007024	3.127616
132.075945	2970.757076	12.532019	0.007092	3.124754
131.786361	2964.758990	12.537024	0.007147	3.121903
131.800778	2958.725755	12.542029	0.007146	3.119075
131.782437	2952.732799	12.547034	0.007151	3.116258
131.809511	2946.717399	12.552039	0.007148	3.113435
131.655439	2940.733171	12.557043	0.007178	3.110599
131.641475	2934.708885	12.562048	0.007182	3.107761
131.675551	2928.703206	12.567053	0.007177	3.104936
131.565082	2922.720139	12.572058	0.007199	3.102098
131.512637	2916.709752	12.577063	0.007211	3.099254
131.338244	2910.697060	12.582067	0.007245	3.096388
131.425970	2904.712814	12.587072	0.007230	3.093570
131.425815	2898.664826	12.592077	0.007231	3.090707
131.344303	2892.707564	12.597082	0.007248	3.087873
131.191580	2886.658956	12.602087	0.007278	3.084983
131.041030	2880.713408	12.607091	0.007308	3.082139
130.720930	2874.670262	12.612096	0.007370	3.079223
130.606398	2868.687382	12.617101	0.007393	3.076361
130.569116	2862.659215	12.622106	0.007401	3.073486
130.473715	2856.644655	12.627111	0.007421	3.070607
130.264783	2850.656153	12.632115	0.007461	3.067721
130.317493	2844.642693	12.637120	0.007453	3.064858
130.070682	2838.659160	12.642125	0.007501	3.061963
129.911513	2832.659482	12.647130	0.007532	3.059071
129.856285	2826.614679	12.652135	0.007544	3.056169
130.017672	2820.620404	12.657139	0.007515	3.053320
129.922299	2814.604728	12.662144	0.007534	3.050420
129.736772	2808.626686	12.667149	0.007571	3.047524
129.727204	2802.600426	12.672154	0.007574	3.044626
129.671504	2796.607835	12.677159	0.007586	3.041736
129.507580	2790.626456	12.682163	0.007618	3.038832
129.137666	2784.588275	12.687168	0.007689	3.035869
129.042504	2778.611220	12.692173	0.007708	3.032972
129.122854	2772.577525	12.697178	0.007695	3.030070
129.087032	2766.570485	12.702183	0.007703	3.027161
128.975492	2760.609140	12.707187	0.007725	3.024261
128.962467	2754.539899	12.712192	0.007729	3.021319
128.957566	2748.577151	12.717197	0.007732	3.018428
128.816747	2742.567942	12.722202	0.007760	3.015492
128.592522	2736.576645	12.727207	0.007803	3.012549
128.474884	2730.551895	12.732211	0.007827	3.009603
128.458780	2724.538128	12.737216	0.007831	3.006674
128.354340	2718.552078	12.742221	0.007852	3.003743
128.222845	2712.525608	12.747226	0.007879	3.000785
128.195669	2706.536679	12.752231	0.007885	2.997858
128.126465	2700.545725	12.757235	0.007900	2.994921
128.075769	2694.507305	12.762240	0.007911	2.991960
127.996578	2688.536951	12.767245	0.007927	2.989026
128.028617	2682.491484	12.772250	0.007922	2.986068
127.822487	2676.553781	12.777255	0.007963	2.983125
127.564590	2670.497110	12.782259	0.008012	2.980113
127.543665	2664.490018	12.787264	0.008018	2.977158
127.422698	2658.503660	12.792269	0.008042	2.974195
127.482311	2652.479967	12.797274	0.008032	2.971237
127.360217	2646.485729	12.802279	0.008057	2.968264
127.175951	2640.478291	12.807283	0.008093	2.965272
127.159631	2634.473336	12.812288	0.008097	2.962303
127.126282	2628.493409	12.817293	0.008105	2.959341
126.983709	2622.441999	12.822298	0.008133	2.956325
127.143372	2616.456461	12.827303	0.008105	2.953383
126.928444	2610.484448	12.832307	0.008147	2.950389
126.573928	2604.445644	12.837312	0.008215	2.947338
126.493296	2598.463278	12.842317	0.008231	2.944353
126.562020	2592.416292	12.847322	0.008220	2.941355
126.465568	2586.439652	12.852327	0.008239	2.938364
126.474568	2580.438588	12.857331	0.008239	2.935373
126.481341	2574.423042	12.862336	0.008240	2.932373
126.394522	2568.425676	12.867341	0.008257	2.929364
126.168275	2562.417381	12.872346	0.008301	2.926325
126.236596	2556.427382	12.877351	0.008290	2.923337
125.771926	2550.444671	12.882355	0.008379	2.920269
125.656885	2544.395057	12.887360	0.008402	2.917216
125.556399	2538.424491	12.892365	0.008422	2.914203
125.498057	2532.382832	12.897370	0.008434	2.911157
125.440201	2526.404433	12.902375	0.008447	2.908140
125.376163	2520.382112	12.907379	0.008460	2.905097
125.348063	2514.375036	12.912384	0.008467	2.902063
125.135242	2508.396964	12.917389	0.008508	2.899013
125.226640	2502.351418	12.922394	0.008493	2.895972
125.055966	2496.385036	12.927399	0.008526	2.892928
124.838337	2490.359214	12.932403	0.008569	2.889843
124.821815	2484.332937	12.937408	0.008573	2.886786
124.782982	2478.361659	12.942413	0.008582	2.883750
124.615172	2472.369638	12.947418	0.008615	2.880680
124.637721	2466.335300	12.952423	0.008612	2.877615
124.552978	2460.360930	12.957427	0.008630	2.874560
124.671063	2454.294958	12.962432	0.008609	2.871487
124.473608	2448.340889	12.967437	0.008647	2.868419
124.400705	2442.340615	12.972442	0.008663	2.865343
124.136775	2436.349657	12.977447	0.008714	2.862239
123.834273	2430.327779	12.982451	0.008772	2.859109
123.776783	2424.298035	12.987456	0.008784	2.856011
123.820468	2418.327246	12.992461	0.008777	2.852955
123.717599	2412.305609	12.997466	0.008798	2.849847
123.618012	2406.267141	13.002471	0.008818	2.846727
123.519244	2400.327266	13.007475	0.008838	2.843655
123.521589	2394.273224	13.012480	0.008839	2.840536
123.605786	2388.272103	13.017485	0.008825	2.837454
123.463546	2382.313112	13.022490	0.008853	2.834355
123.135420	2376.294067	13.027495	0.008916	2.831192
122.843015	2370.292091	13.032499	0.008973	2.828040
122.875541	2364.262146	13.037504	0.008968	2.824921
122.880712	2358.253868	13.042509	0.008969	2.821806
122.787371	2352.268714	13.047514	0.008988	2.818684
122.819937	2346.260485	13.052519	0.008983	2.815566
122.597054	2340.236845	13.057523	0.009026	2.812396
122.534008	2334.243349	13.062528	0.009040	2.809264
122.430635	2328.242089	13.067533	0.009061	2.806117
122.491099	2322.235916	13.072538	0.009051	2.802991
122.249431	2316.243713	13.077543	0.009098	2.799820
122.085969	2310.227145	13.082547	0.009130	2.796645
122.072152	2304.240954	13.087552	0.009134	2.793507
121.993338	2298.208415	13.092557	0.009150	2.790330
121.822134	2292.203059	13.097562	0.009184	2.787149
121.966222	2286.213925	13.102567	0.009158	2.784025
121.810911	2280.225709	13.107571	0.009189	2.780848
121.735715	2274.200070	13.112576	0.009204	2.777661
121.509808	2268.222198	13.117581	0.009248	2.774471
121.293944	2262.208648	13.122586	0.009290	2.771260
121.199762	2256.179796	13.127591	0.009309	2.768057
121.210134	2250.187417	13.132595	0.009309	2.764887
120.876940	2244.182028	13.137600	0.009373	2.761650
120.728919	2238.203398	13.142605	0.009402	2.758454
120.646237	2232.159195	13.147610	0.009419	2.755229
120.681724	2226.156353	13.152615	0.009414	2.752043
120.681544	2220.164504	13.157619	0.009415	2.748853
120.626994	2214.170197	13.162624	0.009427	2.745649
120.631055	2208.133670	13.167629	0.009428	2.742428
120.608361	2202.169217	13.172634	0.009434	2.739238
120.517888	2196.141282	13.177639	0.009452	2.735999
120.466911	2190.133273	13.182643	0.009463	2.732773
120.166268	2184.152726	13.187648	0.009521	2.729516
120.152576	2178.126504	13.192653	0.009525	2.726278
120.018194	2172.137618	13.197658	0.009552	2.723037
120.009138	2166.119662	13.202663	0.009555	2.719798
119.881705	2160.129696	13.207667	0.009580	2.716549
119.661465	2154.118182	13.212672	0.009623	2.713269
119.792177	2148.090266	13.217677	0.009600	2.710036
119.482038	2142.137753	13.222682	0.009660	2.706765
119.310999	2136.117341	13.227687	0.009693	2.703477
119.102289	2130.105247	13.232691	0.009734	2.700183
118.967314	2124.107392	13.237696	0.009761	2.696905
119.107093	2118.059369	13.242701	0.009736	2.693643
119.063736	2112.093879	13.247706	0.009746	2.690391
119.148051	2106.064569	13.252711	0.009731	2.687121
118.837159	2100.101574	13.257715	0.009791	2.683816
118.789950	2094.080329	13.262720	0.009802	2.680521
118.378763	2088.100606	13.267725	0.009880	2.677181
118.306899	2082.066237	13.272730	0.009895	2.673866
118.305975	2076.056901	13.277735	0.009897	2.670573
118.352016	2070.046994	13.282739	0.009890	2.667283
118.121974	2064.070769	13.287744	0.009934	2.663960
118.031462	2058.052460	13.292749	0.009953	2.660634
117.939933	2052.051122	13.297754	0.009972	2.657313
117.977269	2046.024000	13.302759	0.009966	2.653995
118.003843	2040.029820	13.307763	0.009963	2.650690
117.852850	2034.054368	13.312768	0.009992	2.647361
117.528858	2028.030506	13.317773	0.010055	2.643970
117.440807	2022.033654	13.322778	0.010073	2.640630
117.417370	2016.029328	13.327783	0.010079	2.637294
117.475391	2009.992766	13.332787	0.010069	2.633950
117.269760	2004.036178	13.337792	0.010109	2.630600
117.067551	1998.027990	13.342797	0.010149	2.627217
116.698374	1992.029760	13.347802	0.010219	2.623806
116.577272	1986.009722	13.352807	0.010244	2.620422
116.665660	1979.977033	13.357811	0.010228	2.617064
116.630063	1974.002003	13.362816	0.010237	2.613712
116.355513	1968.006015	13.367821	0.010290	2.610302
116.190294	1962.000789	13.372826	0.010322	2.606901
116.074139	1955.970419	13.377831	0.010345	2.603490
116.102415	1949.976871	13.382835	0.010342	2.600121
116.176998	1943.964135	13.387840	0.010329	2.596746
116.105940	1937.974341	13.392845	0.010344	2.593353
115.958400	1931.958575	13.397850	0.010373	2.589926
115.856463	1925.984294	13.402855	0.010394	2.586527
115.845564	1919.934363	13.407859	0.010397	2.583098
115.792256	1913.973928	13.412864	0.010409	2.579706
115.279552	1907.923490	13.417869	0.010506	2.576176
115.369427	1901.926292	13.422874	0.010491	2.572781
115.230162	1895.934369	13.427879	0.010519	2.569342
115.188881	1889.951482	13.432883	0.010528	2.565922
115.016236	1883.949555	13.437888	0.010562	2.562462
115.149229	1877.881961	13.442893	0.010538	2.559016
115.014871	1871.954145	13.447898	0.010565	2.555597
115.056902	1865.919047	13.452903	0.010559	2.552144
114.762844	1859.926277	13.457907	0.010615	2.548648
114.466403	1853.955460	13.462912	0.010672	2.545160
114.350392	1847.904772	13.467917	0.010696	2.541654
114.342689	1841.891021	13.472922	0.010699	2.538185
114.336977	1835.914839	13.477927	0.010701	2.534733
114.294092	1829.886448	13.482931	0.010711	2.531239
114.174284	1823.925372	13.487936	0.010735	2.527766
113.863396	1817.924854	13.492941	0.010794	2.524228
113.452648	1811.893413	13.497946	0.010873	2.520649
113.519330	1805.888440	13.502951	0.010862	2.517170
113.548002	1799.861101	13.507955	0.010858	2.513666
113.353415	1793.888733	13.512960	0.010896	2.510147
113.227076	1787.902327	13.517965	0.010921	2.506628
113.165151	1781.861739	13.522970	0.010934	2.503084
112.828654	1775.882474	13.527975	0.010999	2.499519
112.809243	1769.875761	13.532979	0.011004	2.495993
112.613659	1763.869956	13.537984	0.011042	2.492429
112.546352	1757.835636	13.542989	0.011056	2.488868
112.399282	1751.882167	13.547994	0.011085	2.485334
112.346681	1745.863837	13.552999	0.011097	2.481774
112.276511	1739.812327	13.558003	0.011112	2.478187
112.292565	1733.850604	13.563008	0.011110	2.474664
112.247895	1727.825921	13.568013	0.011120	2.471087
112.240599	1721.848357	13.573018	0.011123	2.467540
111.999718	1715.830738	13.578023	0.011169	2.463919
112.081247	1709.829408	13.583027	0.011156	2.460364
112.046328	1703.827387	13.588032	0.011164	2.456782
111.994884	1697.838990	13.593037	0.011175	2.453199
111.925963	1691.785697	13.598042	0.011189	2.449569
111.613854	1685.858614	13.603047	0.011249	2.445961
111.375191	1679.830194	13.608051	0.011295	2.442302
111.332716	1673.791536	13.613056	0.011305	2.438669
111.351006	1667.790889	13.618061	0.011303	2.435066
111.301870	1661.811239	13.623066	0.011314	2.431457
111.146146	1655.806184	13.628071	0.011344	2.427806
111.154173	1649.786294	13.633075	0.011344	2.424173
110.844822	1643.832347	13.638080	0.011404	2.420512
110.726619	1637.797139	13.643085	0.011428	2.416833
110.676483	1631.767994	13.648090	0.011438	2.413167
110.637278	1625.778625	13.653095	0.011447	2.409521
110.459480	1619.789841	13.658099	0.011482	2.405842
110.410990	1613.783394	13.663104	0.011493	2.402172
110.338331	1607.761099	13.668109	0.011508	2.398483
110.447303	1601.748084	13.673114	0.011489	2.394829
109.918783	1595.823138	13.678119	0.011590	2.391097
109.736728	1589.775180	13.683123	0.011625	2.387352
109.617887	1583.755996	13.688128	0.011649	2.383632
109.660399	1577.740762	13.693133	0.011643	2.379941
109.599807	1571.764879	13.698138	0.011655	2.376248
109.527685	1565.749023	13.703143	0.011670	2.372522
109.393742	1559.752136	13.708147	0.011697	2.368789
109.404332	1553.735418	13.713152	0.011697	2.365068
109.027882	1547.791590	13.718157	0.011769	2.361307
108.987758	1541.729739	13.723162	0.011778	2.357535
108.697910	1535.742808	13.728167	0.011834	2.353753
108.809341	1529.708135	13.733171	0.011814	2.350017
108.672052	1523.754952	13.738176	0.011841	2.346275
108.491608	1517.737991	13.743181	0.011877	2.342478
108.492699	1511.713392	13.748186	0.011878	2.338708
108.474240	1505.719136	13.753191	0.011883	2.334947
108.190678	1499.735913	13.758195	0.011938	2.331131
108.187411	1493.709030	13.763200	0.011940	2.327340
108.031608	1487.724813	13.768205	0.011970	2.323538
107.819057	1481.717379	13.773210	0.012012	2.319703
107.603155	1475.723137	13.778215	0.012054	2.315869
107.573313	1469.691191	13.783219	0.012061	2.312044
107.533068	1463.721145	13.788224	0.012070	2.308250
107.087985	1457.728626	13.793229	0.012155	2.304350
107.040837	1451.685287	13.798234	0.012165	2.300495
107.122209	1445.694395	13.803239	0.012151	2.296694
106.884711	1439.689195	13.808243	0.012198	2.292810
106.810583	1433.701586	13.813248	0.012213	2.288966
106.586342	1427.702375	13.818253	0.012256	2.285075
106.332369	1421.696715	13.823258	0.012306	2.281168
106.254435	1415.681605	13.828263	0.012322	2.277285
106.180301	1409.683543	13.833267	0.012337	2.273407
106.032257	1403.665477	13.838272	0.012366	2.269494
106.164422	1397.659234	13.843277	0.012343	2.265642
105.955924	1391.668851	13.848282	0.012384	2.261720
106.073279	1385.656202	13.853287	0.012363	2.257848
105.663206	1379.689147	13.858291	0.012442	2.253884
105.465865	1373.676119	13.863296	0.012480	2.249929
105.361505	1367.646622	13.868301	0.012501	2.245977
105.351797	1361.659281	13.873306	0.012504	2.242066
105.253187	1355.651279	13.878311	0.012524	2.238116
105.168769	1349.654457	13.883315	0.012542	2.234168
104.703841	1343.688386	13.888320	0.012631	2.230151
104.681551	1337.636851	13.893325	0.012636	2.226167
104.467540	1331.657260	13.898330	0.012678	2.222181
104.523337	1325.636983	13.903335	0.012669	2.218221
104.453033	1319.618216	13.908339	0.012684	2.214226
104.326549	1313.642621	13.913344	0.012709	2.210241
104.049609	1307.665137	13.918349	0.012762	2.206214
103.883566	1301.639548	13.923354	0.012795	2.202171
103.845663	1295.623369	13.928359	0.012803	2.198157
103.775199	1289.621893	13.933363	0.012818	2.194137
103.692817	1283.628708	13.938368	0.012835	2.190114
103.652204	1277.618120	13.943373	0.012844	2.186080
103.445387	1271.628986	13.948378	0.012884	2.182016
103.358291	1265.627848	13.953383	0.012902	2.177963
103.246487	1259.615233	13.958387	0.012925	2.173889
103.221111	1253.606835	13.963392	0.012931	2.169830
102.899015	1247.638379	13.968397	0.012993	2.165723
102.676804	1241.617696	13.973402	0.013036	2.161595
102.688566	1235.604274	13.978407	0.013035	2.157518
102.579425	1229.612480	13.983411	0.013057	2.153421
102.442630	1223.605111	13.988416	0.013085	2.149298
102.528481	1217.584009	13.993421	0.013070	2.145209
102.107795	1211.640988	13.998426	0.013150	2.141049
102.047753	1205.602557	14.003431	0.013163	2.136899
101.917567	1199.591221	14.008435	0.013189	2.132743
101.809499	1193.613487	14.013440	0.013211	2.128608
101.631562	1187.602086	14.018445	0.013246	2.124424
101.434806	1181.598671	14.023450	0.013284	2.120234
101.187943	1175.617975	14.028455	0.013332	2.116039
101.137950	1169.573172	14.033459	0.013343	2.111838
100.974793	1163.600826	14.038464	0.013375	2.107651
100.969058	1157.583262	14.043469	0.013377	2.103463
101.006607	1151.571257	14.048474	0.013372	2.099280
100.860200	1145.588136	14.053479	0.013401	2.095065
100.505079	1139.606145	14.058483	0.013469	2.090792
100.279429	1133.601155	14.063488	0.013513	2.086526
100.253281	1127.557659	14.068493	0.013519	2.082272
100.227162	1121.580758	14.073498	0.013526	2.078055
100.195358	1115.567562	14.078503	0.013533	2.073803
100.147508	1109.564245	14.083507	0.013543	2.069546
99.885639	1103.587505	14.088512	0.013594	2.065247
99.707039	1097.581462	14.093517	0.013629	2.060938
99.518708	1091.576570	14.098522	0.013666	2.056619
99.251091	1085.591416	14.103527	0.013718	2.052285
99.428499	1079.530496	14.108531	0.013686	2.047996
99.116711	1073.610858	14.113536	0.013746	2.043680
98.836425	1067.588334	14.118541	0.013800	2.039289
98.763616	1061.560804	14.123546	0.013815	2.034935
98.640179	1055.542569	14.128551	0.013840	2.030567
98.734359	1049.548623	14.133555	0.013823	2.026260
98.434549	1043.584810	14.138560	0.013881	2.021868
98.168967	1037.589865	14.143565	0.013932	2.017453
97.879474	1031.560322	14.148570	0.013988	2.012997
97.970347	1025.560586	14.153575	0.013973	2.008647
97.543393	1019.580552	14.158579	0.014054	2.004173
97.487873	1013.572273	14.163584	0.014066	1.999761
97.328839	1007.549496	14.168589	0.014098	1.995303
97.268905	1001.546802	14.173594	0.014110	1.990874
97.014846	995.562012	14.178599	0.014159	1.986400
97.111092	989.534078	14.183603	0.014143	1.981973
96.485165	983.635187	14.188608	0.014262	1.977447
96.304485	977.565097	14.193613	0.014297	1.972898
96.302512	971.532584	14.198618	0.014299	1.968411
96.207497	965.558411	14.203623	0.014318	1.963934
96.220615	959.526869	14.208627	0.014317	1.959432
96.100202	953.561027	14.213632	0.014341	1.954934
96.024845	947.544458	14.218637	0.014357	1.950400
95.867124	941.570163	14.223642	0.014388	1.945865
95.796230	935.529726	14.228647	0.014403	1.941292
95.883489	929.540352	14.233651	0.014388	1.936788
95.702251	923.518849	14.238656	0.014424	1.932179
95.767884	917.555708	14.243661	0.014413	1.927669
95.310880	911.593617	14.248666	0.014500	1.923011
94.982062	905.576582	14.253671	0.014563	1.918333
94.762441	899.543509	14.258675	0.014606	1.913660
94.768150	893.541310	14.263680	0.014606	1.909060
94.571428	887.561623	14.268685	0.014645	1.904412
94.495194	881.559225	14.273690	0.014660	1.899767
94.019666	875.597426	14.278695	0.014751	1.895035
93.688465	869.569168	14.283699	0.014815	1.890278
93.525998	863.547087	14.288704	0.014847	1.885560
93.609443	857.536783	14.293709	0.014833	1.880905
93.419668	851.542448	14.298714	0.014870	1.876177
93.292559	845.558187	14.303719	0.014895	1.871462
92.968861	839.591696	14.308723	0.014957	1.866696
92.741748	833.553265	14.313728	0.015001	1.861887
92.586187	827.562352	14.318733	0.015032	1.857123
92.733458	821.501243	14.323738	0.015006	1.852374
92.474298	815.574457	14.328743	0.015056	1.847607
92.368169	809.550441	14.333747	0.015077	1.842793
91.951570	803.599259	14.338752	0.015157	1.837938
91.817845	797.555640	14.343757	0.015184	1.833075
91.302715	791.629404	14.348762	0.015282	1.828187
91.268985	785.534238	14.353767	0.015290	1.823285
91.059490	779.575384	14.358771	0.015330	1.818430
90.748904	773.607175	14.363776	0.015390	1.813525
90.406070	767.583541	14.368781	0.015456	1.808553
90.480412	761.531972	14.373786	0.015444	1.803664
90.114589	755.592140	14.378791	0.015514	1.798726
90.035263	749.563576	14.383795	0.015530	1.793785
89.878888	743.564787	14.388800	0.015561	1.788832
89.920957	737.545722	14.393805	0.015554	1.783905
89.700852	731.573940	14.398810	0.015597	1.778928
89.719491	725.554646	14.403815	0.015595	1.773968
89.531687	719.584088	14.408819	0.015632	1.768973
89.182527	713.606488	14.413824	0.015699	1.763912
88.908956	707.607001	14.418829	0.015752	1.758839
88.549774	701.590062	14.423834	0.015821	1.753712
88.459389	695.584002	14.428839	0.015839	1.748659
88.499263	689.563688	14.433843	0.015833	1.743617
88.310154	683.581672	14.438848	0.015870	1.738525
88.163267	677.598481	14.443853	0.015899	1.733430
87.605293	671.647545	14.448858	0.016005	1.728224
87.629824	665.576792	14.453863	0.016002	1.723075
87.285084	659.638034	14.458867	0.016068	1.717912
87.135994	653.579981	14.463872	0.016098	1.712690
87.036703	647.599926	14.468877	0.016118	1.707534
86.956302	641.603269	14.473882	0.016134	1.702354
86.387892	635.666642	14.478887	0.016243	1.697062
85.948251	629.652103	14.483891	0.016327	1.691724
85.910887	623.572934	14.488896	0.016335	1.686437
85.946434	617.605226	14.493901	0.016330	1.681253
85.767825	611.610609	14.498906	0.016365	1.675963
85.704852	605.611642	14.503911	0.016378	1.670688
85.341202	599.640447	14.508915	0.016448	1.665328
85.365381	593.619794	14.513920	0.016445	1.660027
84.848037	587.672115	14.518925	0.016543	1.654605
84.772191	581.631821	14.523930	0.016559	1.649221
84.589960	575.643471	14.528935	0.016595	1.643832
84.589085	569.626671	14.533939	0.016596	1.638457
84.216785	563.685136	14.538944	0.016668	1.633014
84.014282	557.658546	14.543949	0.016707	1.627531
83.675604	551.686775	14.548954	0.016772	1.622034
83.558467	545.641452	14.553959	0.016796	1.616524
83.382211	539.651810	14.558963	0.016830	1.611026
83.351277	533.644800	14.563968	0.016838	1.605540
82.817538	527.744681	14.568973	0.016939	1.599970
82.629157	521.673603	14.573978	0.016976	1.594336
82.322930	515.702275	14.578983	0.017035	1.588736
82.271600	509.676056	14.583987	0.017046	1.583148
81.930766	503.736962	14.588992	0.017112	1.577526
81.825336	497.676447	14.593997	0.017133	1.571849
81.403429	491.743109	14.599002	0.017214	1.566164
81.489176	485.677870	14.604007	0.017199	1.560505
81.150541	479.742397	14.609011	0.017264	1.554805
80.976244	473.740259	14.614016	0.017298	1.549077
80.656690	467.746953	14.619021	0.017360	1.543286
80.532264	461.738726	14.624026	0.017384	1.537525
80.402582	455.709881	14.629031	0.017410	1.531721
80.360806	449.742763	14.634035	0.017420	1.525985
79.987148	443.791091	14.639040	0.017491	1.520127
79.732597	437.770432	14.644045	0.017540	1.514221
79.506312	431.768650	14.649050	0.017584	1.508320
79.550696	425.748932	14.654055	0.017577	1.502473
78.990632	419.840577	14.659059	0.017684	1.496500
78.815906	413.794559	14.664064	0.017718	1.490503
78.678977	407.780885	14.669069	0.017746	1.484527
78.641202	401.790766	14.674074	0.017754	1.478586
78.266322	395.849372	14.679079	0.017826	1.472549
78.112684	389.814805	14.684083	0.017856	1.466473
77.959247	383.815658	14.689088	0.017886	1.460407
77.909777	377.813667	14.694093	0.017897	1.454351
77.444548	371.897814	14.699098	0.017986	1.448205
77.087762	365.886962	14.704103	0.018054	1.441976
76.955585	359.833021	14.709107	0.018081	1.435759
76.738249	353.890848	14.714112	0.018123	1.429597
76.383128	347.908886	14.719117	0.018191	1.423317
76.247975	341.878903	14.724122	0.018218	1.417041
76.042189	335.887372	14.729127	0.018258	1.410751
76.021823	329.884305	14.734131	0.018263	1.404490
75.573955	323.967701	14.739136	0.018349	1.398130
75.281980	317.952813	14.744141	0.018405	1.391696
74.927520	311.977354	14.749146	0.018473	1.385251
74.893255	305.918552	14.754151	0.018481	1.378809
74.604372	299.963027	14.759155	0.018537	1.372350
74.497729	293.954907	14.764160	0.018558	1.365874
74.213986	288.005752	14.769165	0.018613	1.359361
74.076987	281.975372	14.774170	0.018640	1.352787
73.636772	276.056710	14.779175	0.018724	1.346182
73.593258	269.993304	14.784179	0.018734	1.339544
73.098893	264.077054	14.789184	0.018828	1.332855
72.889334	258.058097	14.794189	0.018869	1.326132
72.638920	252.073920	14.799194	0.018917	1.319397
72.540209	246.048413	14.804199	0.018937	1.312644
72.167965	240.084800	14.809203	0.019009	1.305812
72.248651	234.012374	14.814208	0.018995	1.299009
71.949009	228.098810	14.819213	0.019053	1.292192
71.628932	222.137385	14.824218	0.019114	1.285276
71.216425	216.177792	14.829223	0.019193	1.278286
71.123606	210.144183	14.834227	0.019212	1.271306
70.624296	204.222693	14.839232	0.019307	1.264246
70.399632	198.194803	14.844237	0.019351	1.257139
70.197281	192.200338	14.849242	0.019390	1.250041
70.047351	186.207865	14.854247	0.019420	1.242926
69.538361	180.287870	14.859251	0.019517	1.235701
69.498183	174.238112	14.864256	0.019526	1.228483
68.840973	168.350332	14.869261	0.019651	1.221145
68.696279	162.285378	14.874266	0.019679	1.213776
68.558668	156.281045	14.879271	0.019707	1.206438
68.357427	150.327324	14.884275	0.019746	1.199089
67.857466	144.411339	14.889280	0.019841	1.191606
67.676647	138.367973	14.894285	0.019877	1.184063
67.364201	132.405398	14.899290	0.019937	1.176511
67.349544	126.371279	14.904295	0.019941	1.168959
66.901149	120.475075	14.909299	0.020027	1.161330
66.594159	114.484951	14.914304	0.020086	1.153597
65.938219	108.595128	14.919309	0.020210	1.145776
65.686629	102.516913	14.924314	0.020259	1.137850
65.152054	96.590383	14.929319	0.020361	1.129930
65.132852	90.523785	14.934323	0.020366	1.122019
64.670656	84.624307	14.939328	0.020454	1.114056
64.440935	78.621016	14.944333	0.020499	1.106013
63.788820	72.728815	14.949338	0.020622	1.097850
63.378609	66.718574	14.954343	0.020701	1.089588
63.050905	60.714884	14.959347	0.020764	1.081312
62.958454	54.708490	14.964352	0.020783	1.073087
62.273714	48.844501	14.969357	0.020913	1.064693
61.813119	42.844943	14.974362	0.021001	1.056160
61.105397	36.931901	14.979367	0.021135	1.047549
60.711281	30.899907	14.984371	0.021210	1.038863
59.925604	25.017953	14.989376	0.021359	1.030111
59.610115	18.997765	14.994381	0.021420	1.021335
58.577910	13.142308	14.999386	0.021615	1.012337
57.757290	7.193157	15.004391	0.021770	1.003236
56.473935	3.084004	15.009395	0.022012	0.996510
