Fri Jan 13 17:27:19 2023

Number of Points = 3000
Depth (nm)	Load (µN)	Time (s)	Depth (V)	Load (V)
-1.205520	1.535831	0.000000	0.046400	0.920243
0.000000	4.412306	0.005005	0.046173	0.925545
1.312986	8.811383	0.010010	0.045926	0.933284
2.597090	14.392455	0.015014	0.045684	0.942790
3.745872	20.352665	0.020019	0.045467	0.952708
4.467995	26.483456	0.025024	0.045330	0.962542
5.257542	32.564725	0.030029	0.045180	0.972239
5.670183	38.703246	0.035034	0.045101	0.981717
6.219938	44.759980	0.040038	0.044996	0.991058
6.827340	50.789011	0.045043	0.044881	1.000302
7.184693	56.901828	0.050048	0.044812	1.009448
7.497435	62.974669	0.055053	0.044752	1.018430
8.027018	68.991128	0.060058	0.044651	1.027368
8.327395	75.056643	0.065062	0.044593	1.036178
8.971161	81.070419	0.070067	0.044471	1.045019
9.174635	87.183565	0.075072	0.044431	1.053698
9.819412	93.160295	0.080077	0.044309	1.062342
10.015773	99.286184	0.085082	0.044271	1.070893
10.368453	105.314963	0.090086	0.044203	1.079323
10.536671	111.391984	0.095091	0.044170	1.087661
11.011649	117.376702	0.100096	0.044079	1.095963
11.430859	123.423089	0.105101	0.043999	1.104258
11.846651	129.459500	0.110106	0.043920	1.112475
11.941882	135.585364	0.115110	0.043900	1.120595
12.227306	141.575871	0.120115	0.043845	1.128571
12.435480	147.635078	0.125120	0.043805	1.136543
12.884617	153.638771	0.130125	0.043719	1.144501
13.151346	159.690588	0.135130	0.043667	1.152381
13.433615	165.727414	0.140134	0.043613	1.160195
13.721956	171.753234	0.145139	0.043557	1.167946
14.069146	177.805694	0.150144	0.043491	1.175705
14.270886	183.854389	0.155149	0.043451	1.183343
14.530951	189.873481	0.160154	0.043401	1.190922
14.668375	195.940812	0.165158	0.043374	1.198457
15.166028	201.901801	0.170163	0.043279	1.205975
15.364180	207.990162	0.175168	0.043240	1.213469
15.659411	214.015318	0.180173	0.043183	1.220883
15.882853	220.048857	0.185178	0.043140	1.228230
16.259135	226.060497	0.190182	0.043068	1.235575
16.606091	232.073216	0.195187	0.043001	1.242864
16.951989	238.139528	0.200192	0.042935	1.250173
17.249882	244.137517	0.205197	0.042877	1.257340
17.576635	250.192183	0.210202	0.042815	1.264544
17.789329	256.233953	0.215206	0.042773	1.271643
18.175969	262.237710	0.220211	0.042699	1.278733
18.407634	268.284597	0.225216	0.042654	1.285768
18.658528	274.299149	0.230221	0.042606	1.292736
18.832403	280.364474	0.235226	0.042571	1.299692
19.049330	286.448540	0.240230	0.042529	1.306650
19.282057	292.399914	0.245235	0.042484	1.313428
19.606775	298.420743	0.250240	0.042422	1.320287
19.791249	304.452509	0.255245	0.042386	1.327065
20.035372	310.475790	0.260250	0.042338	1.333824
20.198719	316.520833	0.265254	0.042306	1.340540
20.553111	322.493751	0.270259	0.042238	1.347219
20.886486	328.533968	0.275264	0.042174	1.353930
21.155303	334.579661	0.280269	0.042122	1.360589
21.448165	340.588114	0.285274	0.042066	1.367184
21.757929	346.612822	0.290278	0.042006	1.373772
22.115504	352.636201	0.295283	0.041937	1.380345
22.446689	358.661972	0.300288	0.041874	1.386879
22.464462	364.737681	0.305293	0.041869	1.393316
22.838814	370.695412	0.310298	0.041797	1.399734
23.120330	376.731978	0.315302	0.041743	1.406170
23.339823	382.782627	0.320307	0.041700	1.412569
23.601107	388.784506	0.325312	0.041650	1.418903
23.926320	394.804590	0.330317	0.041587	1.425252
24.214960	400.820711	0.335322	0.041532	1.431555
24.606890	406.834319	0.340326	0.041457	1.437865
24.840389	412.890086	0.345331	0.041411	1.444133
25.144334	418.892003	0.350336	0.041353	1.450345
25.558103	424.865247	0.355341	0.041274	1.456541
26.170279	430.901047	0.360346	0.041157	1.462845
26.366820	436.969236	0.365350	0.041119	1.469005
26.707342	442.972373	0.370355	0.041054	1.475126
26.999609	448.997845	0.375360	0.040997	1.481226
27.162721	455.043504	0.380365	0.040965	1.487276
27.307464	461.060631	0.385370	0.040936	1.493266
27.459447	467.108194	0.390374	0.040906	1.499265
27.704955	473.086970	0.395379	0.040859	1.505205
28.001885	479.085808	0.400384	0.040802	1.511159
28.150243	485.161304	0.405389	0.040772	1.517113
28.436644	491.140362	0.410394	0.040717	1.522997
28.645791	497.170729	0.415398	0.040676	1.528882
29.006734	503.183072	0.420403	0.040607	1.534779
29.307788	509.188938	0.425408	0.040549	1.540627
29.684311	515.215614	0.430413	0.040477	1.546498
29.799625	521.272742	0.435418	0.040454	1.552287
30.081017	527.254815	0.440422	0.040400	1.558039
30.122471	533.333404	0.445427	0.040390	1.563781
30.511738	539.286914	0.450432	0.040316	1.569501
30.817407	545.311857	0.455437	0.040257	1.575238
31.162869	551.333846	0.460442	0.040191	1.580965
31.171268	557.401774	0.465446	0.040188	1.586603
31.486986	563.357111	0.470451	0.040127	1.592218
31.698018	569.417581	0.475456	0.040086	1.597875
31.863241	575.429226	0.480461	0.040053	1.603453
32.062996	581.455425	0.485466	0.040014	1.609035
32.402231	587.428924	0.490470	0.039949	1.614596
32.638919	593.491152	0.495475	0.039903	1.620185
32.642520	599.510875	0.500480	0.039901	1.625641
33.247019	605.454217	0.505485	0.039786	1.631203
33.554963	611.498912	0.510490	0.039727	1.636741
33.813629	617.534300	0.515494	0.039677	1.642238
33.935271	623.563025	0.520499	0.039653	1.647666
34.204364	629.577084	0.525504	0.039601	1.653110
34.462390	635.604744	0.530509	0.039551	1.658545
34.458901	641.618420	0.535514	0.039550	1.663867
34.701816	647.631778	0.540518	0.039503	1.669249
34.926021	653.648429	0.545523	0.039459	1.674611
35.062546	659.658309	0.550528	0.039432	1.679923
35.433449	665.648530	0.555533	0.039361	1.685273
35.647524	671.687938	0.560538	0.039319	1.690600
35.815306	677.711230	0.565542	0.039286	1.695883
36.049167	683.738882	0.570547	0.039241	1.701173
36.438774	689.700586	0.575552	0.039166	1.706437
36.755518	695.735685	0.580557	0.039105	1.711726
36.722578	701.816107	0.585562	0.039110	1.716932
37.053782	707.758043	0.590566	0.039047	1.722113
37.232437	713.806210	0.595571	0.039012	1.727323
37.377837	719.828517	0.600576	0.038983	1.732486
37.647600	725.817096	0.605581	0.038931	1.737642
37.908831	731.839055	0.610586	0.038880	1.742808
38.090521	737.872530	0.615590	0.038845	1.747945
38.274643	743.875887	0.620595	0.038809	1.753042
38.326347	749.928394	0.625600	0.038797	1.758127
38.729830	755.866129	0.630605	0.038720	1.763204
38.881687	761.929404	0.635610	0.038690	1.768298
39.206895	767.924118	0.640614	0.038628	1.773370
39.237639	774.001223	0.645619	0.038620	1.778411
39.300463	779.980428	0.650624	0.038607	1.783366
39.572041	785.943245	0.655629	0.038555	1.788354
39.694700	792.019794	0.660634	0.038530	1.793378
40.015380	797.987316	0.665638	0.038469	1.798356
40.343009	804.008803	0.670643	0.038406	1.803366
40.483991	810.049413	0.675648	0.038378	1.808324
40.683269	816.052910	0.680653	0.038339	1.813256
40.654755	822.098587	0.685658	0.038343	1.818143
40.889640	828.069446	0.690662	0.038297	1.823032
41.334557	834.050436	0.695667	0.038212	1.827974
41.484110	840.116451	0.700672	0.038182	1.832889
41.667166	846.129891	0.705677	0.038147	1.837757
41.735152	852.166777	0.710682	0.038132	1.842600
41.867237	858.152964	0.715686	0.038106	1.847407
42.098211	864.162344	0.720691	0.038061	1.852247
42.249967	870.184369	0.725696	0.038031	1.857063
42.422647	876.199912	0.730701	0.037997	1.861867
42.667152	882.199479	0.735706	0.037950	1.866666
42.814505	888.219369	0.740710	0.037921	1.871441
43.108357	894.216246	0.745715	0.037864	1.876227
43.415244	900.234451	0.750720	0.037805	1.881020
43.593293	906.249059	0.755725	0.037770	1.885764
43.745470	912.287008	0.760730	0.037740	1.890506
43.841291	918.301103	0.765734	0.037721	1.895203
44.188074	924.287578	0.770739	0.037654	1.899935
44.505948	930.263822	0.775744	0.037593	1.904639
44.798519	936.325417	0.780749	0.037537	1.909390
45.033796	942.334102	0.785754	0.037491	1.914073
45.104691	948.373333	0.790758	0.037476	1.918725
45.280699	954.359282	0.795763	0.037442	1.923353
45.639441	960.374857	0.800768	0.037373	1.928040
46.021543	966.349602	0.805773	0.037300	1.932691
46.352417	972.394122	0.810778	0.037236	1.937370
46.424209	978.424144	0.815782	0.037221	1.941959
46.502288	984.436582	0.820787	0.037205	1.946525
46.627758	990.451023	0.825792	0.037180	1.951095
46.815378	996.443324	0.830797	0.037143	1.955654
47.220126	1002.436371	0.835802	0.037066	1.960258
47.286283	1008.500559	0.840806	0.037052	1.964818
47.399848	1014.503821	0.845811	0.037029	1.969333
47.504683	1020.522950	0.850816	0.037008	1.973848
47.619361	1026.510579	0.855821	0.036985	1.978332
47.831199	1032.531142	0.860826	0.036944	1.982855
48.106893	1038.527276	0.865830	0.036891	1.987365
48.252972	1044.546980	0.870835	0.036862	1.991850
48.514416	1050.555206	0.875840	0.036811	1.996345
48.592268	1056.592490	0.880845	0.036795	2.000805
48.610338	1062.620196	0.885850	0.036790	2.005234
48.858925	1068.590293	0.890854	0.036742	2.009668
49.074956	1074.605755	0.895859	0.036700	2.014117
49.263851	1080.635909	0.900864	0.036663	2.018561
49.361199	1086.655490	0.905869	0.036643	2.022964
49.547508	1092.646210	0.910874	0.036607	2.027358
49.611667	1098.667549	0.915878	0.036593	2.031735
49.839070	1104.674001	0.920883	0.036549	2.036133
49.995458	1110.692608	0.925888	0.036518	2.040512
50.060181	1116.701130	0.930893	0.036505	2.044851
50.354003	1122.690806	0.935898	0.036448	2.049224
50.491712	1128.739034	0.940902	0.036421	2.053592
50.625078	1134.739702	0.945907	0.036394	2.057915
50.801311	1140.732157	0.950912	0.036360	2.062234
51.036206	1146.734258	0.955917	0.036314	2.066564
51.438908	1152.751614	0.960922	0.036237	2.070937
51.668730	1158.786558	0.965926	0.036193	2.075272
51.689020	1164.807195	0.970931	0.036187	2.079537
51.817190	1170.794653	0.975936	0.036162	2.083795
52.143313	1176.814757	0.980941	0.036099	2.088116
52.268844	1182.822530	0.985946	0.036074	2.092370
52.373147	1188.861007	0.990950	0.036053	2.096633
52.528850	1194.836859	0.995955	0.036022	2.100855
52.609729	1200.876004	1.000960	0.036006	2.105095
52.808241	1206.858818	1.005965	0.035967	2.109315
52.971120	1212.874205	1.010970	0.035935	2.113541
53.112051	1218.904290	1.015974	0.035907	2.117764
53.397927	1224.896987	1.020979	0.035852	2.121986
53.564145	1230.923014	1.025984	0.035819	2.126195
53.790380	1236.908475	1.030989	0.035775	2.130381
53.930865	1242.941752	1.035994	0.035747	2.134572
54.288748	1248.928720	1.040998	0.035679	2.138774
54.196265	1254.996309	1.046003	0.035694	2.142918
54.553318	1260.951935	1.051008	0.035626	2.147081
54.611920	1266.988511	1.056013	0.035614	2.151223
54.691645	1273.014770	1.061018	0.035597	2.155355
54.699848	1279.014649	1.066022	0.035594	2.159444
54.711568	1285.047704	1.071027	0.035590	2.163549
54.907968	1291.015930	1.076032	0.035552	2.167645
55.059143	1297.054697	1.081037	0.035522	2.171770
55.112469	1303.070566	1.086042	0.035511	2.175849
55.339279	1309.044241	1.091046	0.035467	2.179932
55.362828	1315.087284	1.096051	0.035461	2.184008
55.614422	1321.063784	1.101056	0.035412	2.188083
55.761648	1327.100486	1.106061	0.035383	2.192167
56.000980	1333.109709	1.111066	0.035336	2.196246
56.119766	1339.116830	1.116070	0.035313	2.200289
56.209724	1345.130741	1.121075	0.035294	2.204322
56.355419	1351.136348	1.126080	0.035266	2.208355
56.520329	1357.139344	1.131085	0.035233	2.212383
56.731619	1363.171553	1.136090	0.035192	2.216434
56.936429	1369.139573	1.141094	0.035152	2.220433
57.086332	1375.186783	1.146099	0.035122	2.224465
56.997854	1381.213884	1.151104	0.035138	2.228424
57.189852	1387.197861	1.156109	0.035100	2.232409
57.375128	1393.223224	1.161114	0.035064	2.236413
57.617694	1399.204950	1.166118	0.035017	2.240394
57.947434	1405.212040	1.171123	0.034953	2.244403
57.974291	1411.250354	1.176128	0.034947	2.248359
58.082969	1417.273217	1.181133	0.034925	2.252316
58.202408	1423.287124	1.186138	0.034901	2.256262
58.425869	1429.257058	1.191142	0.034858	2.260196
58.479727	1435.283539	1.196147	0.034846	2.264123
58.815288	1441.272703	1.201152	0.034782	2.268079
59.084375	1447.291143	1.206157	0.034730	2.272033
59.124612	1453.346188	1.211162	0.034721	2.275955
59.252142	1459.316320	1.216166	0.034695	2.279834
59.450785	1465.338103	1.221171	0.034656	2.283755
59.426132	1471.343775	1.226176	0.034660	2.287611
59.637522	1477.358800	1.231181	0.034618	2.291516
59.732855	1483.388185	1.236186	0.034599	2.295400
59.904314	1489.373294	1.241190	0.034565	2.299265
59.938367	1495.386068	1.246195	0.034558	2.303112
60.251212	1501.381436	1.251200	0.034497	2.307000
60.354969	1507.419170	1.256205	0.034476	2.310865
60.443975	1513.426254	1.261210	0.034458	2.314700
60.589038	1519.417926	1.266214	0.034429	2.318531
60.726361	1525.433790	1.271219	0.034402	2.322370
60.866160	1531.464840	1.276224	0.034374	2.326212
61.036481	1537.454804	1.281229	0.034341	2.330029
61.158843	1543.470336	1.286234	0.034317	2.333845
61.359403	1549.477692	1.291238	0.034277	2.337666
61.528276	1555.491580	1.296243	0.034244	2.341478
61.504184	1561.516052	1.301248	0.034247	2.345251
61.681590	1567.486248	1.306253	0.034213	2.349025
61.995892	1573.509803	1.311258	0.034152	2.352855
62.282257	1579.496819	1.316262	0.034097	2.356650
62.396422	1585.557457	1.321267	0.034074	2.360449
62.492584	1591.559541	1.326272	0.034054	2.364202
62.653900	1597.547293	1.331277	0.034023	2.367954
62.685616	1603.577971	1.336282	0.034015	2.371700
62.960670	1609.585422	1.341286	0.033962	2.375475
63.057574	1615.566656	1.346291	0.033942	2.379191
63.121274	1621.611515	1.351296	0.033929	2.382935
63.235927	1627.617516	1.356301	0.033906	2.386658
63.254219	1633.635654	1.361306	0.033901	2.390364
63.579950	1639.607362	1.366310	0.033839	2.394098
63.468181	1645.652054	1.371315	0.033858	2.397782
63.767167	1651.629574	1.376320	0.033800	2.401503
63.872025	1657.670969	1.381325	0.033779	2.405217
64.081131	1663.663876	1.386330	0.033739	2.408917
64.073649	1669.689595	1.391334	0.033738	2.412588
64.262496	1675.677499	1.396339	0.033701	2.416270
64.430332	1681.699811	1.401344	0.033669	2.419963
64.502365	1687.694258	1.406349	0.033654	2.423614
64.739376	1693.698873	1.411354	0.033608	2.427298
64.915871	1699.729194	1.416358	0.033573	2.430981
64.944302	1705.766393	1.421363	0.033566	2.434633
64.952207	1711.725598	1.426368	0.033563	2.438228
65.105689	1717.750722	1.431373	0.033533	2.441886
65.351430	1723.758858	1.436378	0.033485	2.445547
65.363698	1729.771266	1.441382	0.033481	2.449159
65.541606	1735.794697	1.446387	0.033447	2.452804
65.675933	1741.776160	1.451392	0.033420	2.456411
65.864405	1747.811649	1.456397	0.033383	2.460055
65.991346	1753.805032	1.461402	0.033358	2.463656
66.300905	1759.798319	1.466406	0.033298	2.467288
66.261257	1765.849436	1.471411	0.033304	2.470881
66.387963	1771.843011	1.476416	0.033279	2.474467
66.391181	1777.857773	1.481421	0.033277	2.478036
66.686527	1783.835583	1.486426	0.033220	2.481634
66.827501	1789.892108	1.491430	0.033192	2.485245
67.102871	1795.827572	1.496435	0.033139	2.488804
67.216004	1801.902364	1.501440	0.033116	2.492409
67.226334	1807.905524	1.506445	0.033113	2.495947
67.319335	1813.928461	1.511450	0.033094	2.499507
67.419983	1819.899877	1.516454	0.033073	2.503034
67.541133	1825.927767	1.521459	0.033049	2.506593
67.776171	1831.929956	1.526464	0.033004	2.510153
67.963115	1837.941943	1.531469	0.032967	2.513704
68.133152	1843.931656	1.536474	0.032934	2.517235
68.200931	1849.958047	1.541478	0.032919	2.520762
68.383014	1855.979174	1.546483	0.032884	2.524303
68.826157	1861.954918	1.551488	0.032799	2.527862
68.984757	1867.982050	1.556493	0.032768	2.531392
69.346041	1873.992112	1.561498	0.032699	2.534945
69.239741	1880.019887	1.566502	0.032717	2.538416
69.446078	1886.002898	1.571507	0.032677	2.541915
69.465925	1892.043933	1.576512	0.032672	2.545407
69.626060	1898.030639	1.581517	0.032640	2.548890
69.814494	1904.046948	1.586522	0.032603	2.552390
69.825622	1910.056013	1.591526	0.032600	2.555848
70.488590	1915.968424	1.596531	0.032474	2.559367
71.636014	1922.012048	1.601536	0.032257	2.563044
71.764108	1928.087038	1.606541	0.032231	2.566547
72.131055	1934.080593	1.611546	0.032161	2.570042
72.374617	1940.095804	1.616550	0.032114	2.573523
72.361501	1946.164994	1.621555	0.032115	2.576982
72.258660	1952.152550	1.626560	0.032133	2.580375
72.403101	1958.113398	1.631565	0.032104	2.583792
72.520970	1964.135266	1.636570	0.032080	2.587235
72.654230	1970.136931	1.641574	0.032054	2.590664
72.849135	1976.154000	1.646579	0.032016	2.594109
72.908289	1982.156796	1.651584	0.032003	2.597517
72.919285	1988.187285	1.656589	0.032000	2.600927
72.918617	1994.200906	1.661594	0.031998	2.604321
72.929777	2000.195884	1.666598	0.031995	2.607702
73.199891	2006.184516	1.671603	0.031943	2.611122
73.367246	2012.216378	1.676608	0.031910	2.614543
73.496207	2018.195856	1.681613	0.031884	2.617924
73.694100	2024.214183	1.686618	0.031845	2.621334
73.752019	2030.246169	1.691622	0.031833	2.624722
73.892553	2036.232680	1.696627	0.031805	2.628095
74.164613	2042.243708	1.701632	0.031753	2.631501
74.265691	2048.273252	1.706637	0.031732	2.634882
74.234654	2054.280147	1.711642	0.031737	2.638223
74.416179	2060.280925	1.716646	0.031701	2.641594
74.594906	2066.265088	1.721651	0.031666	2.644951
74.677670	2072.303389	1.726656	0.031649	2.648317
74.805886	2078.315048	1.731661	0.031623	2.651672
74.995901	2084.305003	1.736666	0.031586	2.655021
75.062764	2090.326877	1.741670	0.031572	2.658362
75.349610	2096.312930	1.746675	0.031517	2.661718
75.419820	2102.329803	1.751680	0.031502	2.665049
75.569515	2108.357535	1.756685	0.031473	2.668395
75.863961	2114.347300	1.761690	0.031416	2.671741
75.841587	2120.370144	1.766694	0.031419	2.675046
75.939125	2126.392823	1.771699	0.031399	2.678368
76.071022	2132.383161	1.776704	0.031373	2.681674
76.240631	2138.391373	1.781709	0.031339	2.684992
76.413754	2144.405461	1.786714	0.031305	2.688310
76.590963	2150.417236	1.791718	0.031271	2.691623
76.540872	2156.442657	1.796723	0.031279	2.694900
76.538188	2162.437550	1.801728	0.031278	2.698165
76.619821	2168.436206	1.806733	0.031261	2.701443
76.833095	2174.422751	1.811738	0.031219	2.704732
76.940738	2180.461366	1.816742	0.031198	2.708028
77.134974	2186.464138	1.821747	0.031160	2.711314
77.395978	2192.460916	1.826752	0.031109	2.714605
77.390398	2198.493156	1.831757	0.031109	2.717866
77.390677	2204.498992	1.836762	0.031107	2.721110
77.629286	2210.484358	1.841766	0.031061	2.724379
77.841531	2216.511991	1.846771	0.031020	2.727662
77.846732	2222.521169	1.851776	0.031017	2.730897
78.018701	2228.543512	1.856781	0.030983	2.734163
78.000159	2234.527902	1.861786	0.030985	2.737373
78.328925	2240.515230	1.866790	0.030922	2.740638
78.532134	2246.554325	1.871795	0.030883	2.743907
78.718699	2252.538211	1.876800	0.030846	2.747139
78.782573	2258.588535	1.881805	0.030833	2.750383
78.992434	2264.580108	1.886810	0.030792	2.753615
79.109002	2270.563944	1.891814	0.030768	2.756824
79.353846	2276.582406	1.896819	0.030721	2.760069
79.404851	2282.613160	1.901824	0.030710	2.763285
79.526664	2288.601921	1.906829	0.030686	2.766486
79.706860	2294.614897	1.911834	0.030650	2.769706
79.806289	2300.652988	1.916838	0.030630	2.772922
79.766731	2306.626198	1.921843	0.030636	2.776078
79.889718	2312.660349	1.926848	0.030612	2.779289
80.092826	2318.637693	1.931853	0.030572	2.782479
80.300157	2324.655663	1.936858	0.030532	2.785687
80.312373	2330.687759	1.941862	0.030528	2.788867
80.374268	2336.691197	1.946867	0.030515	2.792037
80.437608	2342.692733	1.951872	0.030501	2.795203
80.471406	2348.712030	1.956877	0.030493	2.798369
80.735062	2354.679062	1.961882	0.030442	2.801542
80.785286	2360.730865	1.966886	0.030432	2.804720
80.908123	2366.721195	1.971891	0.030407	2.807875
81.181583	2372.725662	1.976896	0.030354	2.811058
81.208404	2378.731796	1.981901	0.030348	2.814198
81.348777	2384.750991	1.986906	0.030320	2.817360
81.446847	2390.755293	1.991910	0.030300	2.820504
81.724045	2396.763440	1.996915	0.030247	2.823675
81.951990	2402.763030	2.001920	0.030202	2.826830
82.042810	2408.784571	2.006925	0.030184	2.829971
82.071213	2414.813374	2.011930	0.030177	2.833103
82.108433	2420.790084	2.016934	0.030168	2.836205
82.522471	2426.766915	2.021939	0.030089	2.839364
82.684320	2432.823838	2.026944	0.030057	2.842521
82.693197	2438.844987	2.031949	0.030054	2.845631
82.880764	2444.817948	2.036954	0.030018	2.848742
82.905625	2450.851658	2.041958	0.030011	2.851854
83.121500	2456.817698	2.046963	0.029969	2.854959
83.141467	2462.875857	2.051968	0.029964	2.858076
83.256321	2468.858086	2.056973	0.029941	2.861167
83.374927	2474.863368	2.061978	0.029917	2.864266
83.536097	2480.882949	2.066982	0.029886	2.867376
83.745247	2486.881699	2.071987	0.029845	2.870479
83.795869	2492.917757	2.076992	0.029834	2.873573
83.896494	2498.896170	2.081997	0.029814	2.876642
84.217313	2504.897141	2.087002	0.029752	2.879754
84.442984	2510.935039	2.092006	0.029708	2.882866
84.603295	2516.926507	2.097011	0.029676	2.885941
84.568401	2522.950741	2.102016	0.029682	2.889000
84.686689	2528.970377	2.107021	0.029658	2.892076
84.821384	2534.948422	2.112026	0.029631	2.895131
85.003725	2540.981231	2.117030	0.029595	2.898217
85.061378	2546.969035	2.122035	0.029583	2.901258
85.300722	2552.949347	2.127040	0.029537	2.904320
85.113503	2559.027900	2.132045	0.029570	2.907363
85.480014	2564.988021	2.137050	0.029500	2.910428
85.521558	2570.997448	2.142054	0.029491	2.913465
85.682450	2577.011725	2.147059	0.029459	2.916519
85.807090	2583.014836	2.152064	0.029434	2.919559
85.820297	2589.064233	2.157069	0.029430	2.922602
86.013221	2595.016421	2.162074	0.029393	2.925621
85.937591	2601.069174	2.167078	0.029405	2.928645
86.206309	2607.051473	2.172083	0.029353	2.931684
86.295719	2613.047523	2.177088	0.029335	2.934699
86.298808	2619.110840	2.182093	0.029333	2.937732
86.524137	2625.053952	2.187098	0.029289	2.940735
86.539570	2631.100392	2.192102	0.029285	2.943755
86.783088	2637.099323	2.197107	0.029238	2.946782
86.970433	2643.093279	2.202112	0.029201	2.949796
87.034023	2649.142052	2.207117	0.029188	2.952815
87.191772	2655.105238	2.212122	0.029157	2.955802
87.228320	2661.128003	2.217126	0.029148	2.958798
87.358416	2667.143880	2.222131	0.029122	2.961801
87.541606	2673.143683	2.227136	0.029086	2.964802
87.551407	2679.163898	2.232141	0.029083	2.967783
87.679951	2685.163367	2.237146	0.029058	2.970769
87.710252	2691.163022	2.242150	0.029050	2.973737
87.981817	2697.195072	2.247155	0.028998	2.976755
87.995175	2703.179022	2.252160	0.028994	2.979707
88.297849	2709.188153	2.257165	0.028936	2.982711
88.434758	2715.183331	2.262170	0.028908	2.985681
88.606399	2721.207848	2.267174	0.028875	2.988668
88.662040	2727.231845	2.272179	0.028863	2.991634
88.752947	2733.226480	2.277184	0.028844	2.994588
88.650802	2739.267561	2.282189	0.028862	2.997533
88.891405	2745.219824	2.287194	0.028815	3.000483
89.094730	2751.239669	2.292198	0.028776	3.003457
89.193274	2757.278322	2.297203	0.028756	3.006422
89.199464	2763.276305	2.302208	0.028753	3.009350
89.292681	2769.303521	2.307213	0.028734	3.012303
89.382643	2775.265227	2.312218	0.028716	3.015221
89.577366	2781.283081	2.317222	0.028678	3.018178
89.739307	2787.289728	2.322227	0.028646	3.021122
89.982280	2793.298172	2.327232	0.028599	3.024076
90.043793	2799.335026	2.332237	0.028586	3.027014
90.287423	2805.308871	2.337242	0.028539	3.029945
90.241984	2811.345444	2.342246	0.028546	3.032863
90.456594	2817.343562	2.347251	0.028504	3.035796
90.766726	2823.316052	2.352256	0.028444	3.038727
90.954350	2829.383845	2.357261	0.028407	3.041684
90.992298	2835.351149	2.362266	0.028399	3.044569
91.222260	2841.388464	2.367270	0.028354	3.047512
91.238747	2847.384653	2.372275	0.028350	3.050401
91.443482	2853.380205	2.377280	0.028310	3.053315
91.545814	2859.414477	2.382285	0.028289	3.056230
91.846074	2865.372675	2.387290	0.028231	3.059133
91.908475	2871.435599	2.392294	0.028218	3.062050
92.005231	2877.430331	2.397299	0.028198	3.064937
92.125980	2883.408038	2.402304	0.028174	3.067816
92.414581	2889.452955	2.407309	0.028119	3.070748
92.333236	2895.443542	2.412314	0.028132	3.073599
92.423285	2901.467674	2.417318	0.028114	3.076488
92.641655	2907.453205	2.422323	0.028072	3.079374
92.760132	2913.467311	2.427328	0.028048	3.082256
92.733719	2919.477231	2.432333	0.028051	3.085114
92.968567	2925.486856	2.437338	0.028006	3.088005
93.086455	2931.493878	2.442342	0.027982	3.090876
93.154002	2937.509489	2.447347	0.027968	3.093742
93.227604	2943.526306	2.452352	0.027953	3.096606
93.484260	2949.508904	2.457357	0.027903	3.099476
93.465892	2955.519740	2.462362	0.027905	3.102320
93.675747	2961.535267	2.467366	0.027864	3.105194
93.722174	2967.548814	2.472371	0.027854	3.108042
93.943046	2973.569789	2.477376	0.027811	3.110915
93.908012	2979.552101	2.482381	0.027816	3.113732
94.002808	2985.584049	2.487386	0.027797	3.116588
94.084684	2991.557030	2.492390	0.027780	3.119412
94.196632	2997.583793	2.497395	0.027757	3.122262
94.340084	3003.594309	2.502400	0.027729	3.125107
94.545804	3009.601537	2.507405	0.027689	3.127955
94.724465	3015.625579	2.512410	0.027654	3.130806
94.720837	3021.607688	2.517414	0.027653	3.133609
94.828793	3027.626029	2.522419	0.027631	3.136442
95.065677	3033.608351	2.527424	0.027585	3.139273
95.248108	3039.622739	2.532429	0.027550	3.142109
95.499757	3045.635923	2.537434	0.027501	3.144951
95.541585	3051.647366	2.542438	0.027492	3.147762
95.705769	3057.668882	2.547443	0.027459	3.150591
95.655255	3063.660296	2.552448	0.027467	3.153374
95.937497	3069.677927	2.557453	0.027413	3.156213
95.972879	3075.688046	2.562458	0.027405	3.159012
96.186724	3081.695520	2.567462	0.027363	3.161831
96.274017	3087.700029	2.572467	0.027345	3.164629
96.307276	3093.713415	2.577472	0.027338	3.167422
96.490773	3099.727101	2.582477	0.027302	3.170232
96.451183	3105.714896	2.587482	0.027308	3.172998
96.536956	3111.738537	2.592486	0.027290	3.175795
96.788768	3117.727026	2.597491	0.027241	3.178596
96.773672	3123.770233	2.602496	0.027243	3.181383
97.097762	3129.734435	2.607501	0.027180	3.184177
97.121081	3135.774504	2.612506	0.027174	3.186963
97.355998	3141.771115	2.617510	0.027129	3.189755
97.383838	3147.783179	2.622515	0.027122	3.192525
97.598478	3153.788169	2.627520	0.027080	3.195313
97.638030	3159.791077	2.632525	0.027072	3.198075
97.722980	3165.837201	2.637530	0.027054	3.200860
97.716474	3171.793635	2.642534	0.027054	3.203589
97.848774	3177.842807	2.647539	0.027028	3.206377
98.120305	3183.802070	2.652544	0.026975	3.209140
98.250391	3189.844769	2.657549	0.026949	3.211920
98.101755	3195.862608	2.662554	0.026976	3.214649
98.283115	3201.840188	2.667558	0.026940	3.217401
98.340090	3207.859295	2.672563	0.026928	3.220154
98.439260	3213.846829	2.677568	0.026908	3.222895
98.563843	3219.873410	2.682573	0.026883	3.225655
98.734659	3225.892689	2.687578	0.026849	3.228415
98.765262	3231.899554	2.692582	0.026842	3.231149
98.902938	3237.894701	2.697587	0.026815	3.233889
98.878640	3243.897184	2.702592	0.026818	3.236609
99.126479	3249.922148	2.707597	0.026770	3.239372
99.291994	3255.900014	2.712602	0.026737	3.242101
99.444033	3261.944133	2.717606	0.026707	3.244856
99.458492	3267.931116	2.722611	0.026703	3.247565
99.788116	3273.947465	2.727616	0.026640	3.250326
99.854683	3279.927706	2.732621	0.026626	3.253034
99.948669	3285.982038	2.737626	0.026607	3.255776
99.966899	3291.958399	2.742630	0.026602	3.258472
100.401259	3297.960267	2.747635	0.026519	3.261230
100.410494	3303.986074	2.752640	0.026516	3.263942
100.647180	3309.971133	2.757645	0.026470	3.266663
100.658790	3316.018869	2.762650	0.026466	3.269380
100.948033	3321.991578	2.767654	0.026410	3.272097
100.917723	3328.029263	2.772659	0.026414	3.274801
101.205910	3334.004078	2.777664	0.026359	3.277514
101.459246	3340.039913	2.782669	0.026310	3.280248
101.527958	3346.029074	2.787674	0.026296	3.282935
101.850743	3352.027565	2.792678	0.026233	3.285657
102.150122	3358.061600	2.797683	0.026176	3.288389
102.290980	3364.048254	2.802688	0.026148	3.291078
102.554772	3370.050042	2.807693	0.026097	3.293786
102.684322	3376.056196	2.812698	0.026071	3.296478
102.889223	3382.093117	2.817702	0.026031	3.299190
103.011749	3388.073331	2.822707	0.026007	3.301865
103.100535	3394.118567	2.827712	0.025989	3.304562
103.255722	3400.081872	2.832717	0.025958	3.307229
103.375225	3406.136852	2.837722	0.025934	3.309929
103.418684	3412.113919	2.842726	0.025924	3.312584
103.415939	3418.155323	2.847731	0.025923	3.315259
103.638579	3424.106589	2.852736	0.025880	3.317921
103.812802	3430.173812	2.857741	0.025846	3.320625
103.899942	3436.126980	2.862746	0.025828	3.323266
104.040119	3442.166999	2.867750	0.025800	3.325949
104.250497	3448.161158	2.872755	0.025759	3.328619
104.585552	3454.160077	2.877760	0.025695	3.331305
104.462386	3460.192891	2.882765	0.025717	3.333946
104.721735	3466.173179	2.887770	0.025666	3.336609
104.651124	3472.234233	2.892774	0.025678	3.339266
104.960418	3478.171955	2.897779	0.025619	3.341912
104.912487	3484.235587	2.902784	0.025626	3.344568
105.107559	3490.214873	2.907789	0.025588	3.347215
105.221649	3496.243662	2.912794	0.025565	3.349871
105.658598	3502.165243	2.917798	0.025482	3.352517
106.782244	3508.211758	2.922803	0.025269	3.355300
107.300356	3514.231673	2.927808	0.025171	3.357995
107.382625	3520.251365	2.932813	0.025154	3.360635
107.759771	3526.258990	2.937818	0.025082	3.363303
107.700693	3532.288211	2.942822	0.025091	3.365925
107.884656	3538.283296	2.947827	0.025055	3.368560
107.846067	3544.281090	2.952832	0.025061	3.371167
108.025066	3550.304995	2.957837	0.025026	3.373810
108.171221	3556.296130	2.962842	0.024997	3.376432
108.201584	3562.327667	2.967846	0.024990	3.379057
108.295184	3568.291005	2.972851	0.024971	3.381657
108.468741	3574.350621	2.977856	0.024937	3.384306
108.455802	3580.316047	2.982861	0.024938	3.386890
108.720960	3586.366375	2.987866	0.024886	3.389542
108.677341	3592.343761	2.992870	0.024893	3.392124
108.865924	3598.364141	2.997875	0.024856	3.394750
108.877624	3604.373750	3.002880	0.024852	3.397348
108.990318	3610.386884	3.007885	0.024830	3.399957
109.045093	3616.358401	3.012890	0.024818	3.402540
109.207970	3622.404689	3.017894	0.024786	3.405166
109.253876	3628.389321	3.022899	0.024776	3.407750
109.355795	3634.431315	3.027904	0.024755	3.410362
109.340283	3640.395552	3.032909	0.024757	3.412926
109.603438	3646.407599	3.037914	0.024706	3.415541
109.434131	3652.447153	3.042918	0.024736	3.418115
109.709351	3658.408472	3.047923	0.024683	3.420705
109.801475	3664.455265	3.052928	0.024664	3.423309
109.893501	3670.468834	3.057933	0.024645	3.425897
109.739466	3676.469797	3.062938	0.024673	3.428448
109.851245	3682.447624	3.067942	0.024650	3.431019
110.005760	3688.487699	3.072947	0.024620	3.433619
110.171358	3694.471646	3.077952	0.024587	3.436194
110.312949	3700.483559	3.082957	0.024559	3.438777
110.410400	3706.493819	3.087962	0.024540	3.441352
110.466186	3712.517076	3.092966	0.024528	3.443926
110.609748	3718.523116	3.097971	0.024499	3.446501
110.853169	3724.507225	3.102976	0.024452	3.449076
110.813566	3730.523864	3.107981	0.024458	3.451630
110.795111	3736.561226	3.112986	0.024460	3.454193
110.976740	3742.513293	3.117990	0.024424	3.456742
111.126782	3748.543946	3.122995	0.024395	3.459318
111.333178	3754.541752	3.128000	0.024355	3.461885
111.354950	3760.591340	3.133005	0.024349	3.464451
111.587013	3766.563229	3.138010	0.024304	3.467006
111.634561	3772.594157	3.143014	0.024294	3.469563
111.770864	3778.565587	3.148019	0.024266	3.472103
111.946054	3784.599674	3.153024	0.024232	3.474672
112.087498	3790.595670	3.158029	0.024204	3.477219
112.247844	3796.609527	3.163034	0.024172	3.479774
112.377451	3802.611755	3.168038	0.024147	3.482319
112.432889	3808.622188	3.173043	0.024135	3.484857
112.640769	3814.647766	3.178048	0.024094	3.487417
112.713239	3820.636488	3.183053	0.024079	3.489943
112.787395	3826.617986	3.188058	0.024064	3.492466
112.845298	3832.661775	3.193062	0.024051	3.495011
113.113049	3838.648197	3.198067	0.024000	3.497553
113.166223	3844.651516	3.203072	0.023988	3.500077
113.408734	3850.674526	3.208077	0.023941	3.502628
113.454592	3856.685628	3.213082	0.023931	3.505150
113.611744	3862.726372	3.218086	0.023900	3.507696
113.495793	3868.689660	3.223091	0.023920	3.510176
113.558422	3874.708526	3.228096	0.023907	3.512698
113.677172	3880.693490	3.233101	0.023883	3.515210
113.877512	3886.719281	3.238106	0.023844	3.517747
113.883573	3892.726733	3.243110	0.023842	3.520252
114.109825	3898.738654	3.248115	0.023798	3.522782
114.148421	3904.756534	3.253120	0.023789	3.525292
114.435550	3910.754958	3.258125	0.023734	3.527820
114.313821	3916.772595	3.263130	0.023755	3.530308
114.505911	3922.765359	3.268134	0.023718	3.532819
114.486353	3928.761885	3.273139	0.023720	3.535306
114.641380	3934.788254	3.278144	0.023689	3.537823
114.679228	3940.771931	3.283149	0.023681	3.540308
114.653789	3946.821195	3.288154	0.023684	3.542811
114.745501	3952.797466	3.293158	0.023665	3.545296
114.877069	3958.810384	3.298163	0.023639	3.547798
114.817414	3964.803753	3.303168	0.023649	3.550269
115.056189	3970.831449	3.308173	0.023602	3.552785
115.039945	3976.818657	3.313178	0.023604	3.555255
115.245936	3982.856924	3.318182	0.023564	3.557768
115.291424	3988.833117	3.323187	0.023554	3.560237
115.430923	3994.855232	3.328192	0.023526	3.562733
115.658854	4000.864998	3.333197	0.023482	3.565232
115.750763	4006.888602	3.338202	0.023463	3.567720
115.587157	4012.863391	3.343206	0.023492	3.570158
115.787664	4018.900813	3.348211	0.023453	3.572660
115.799645	4024.893580	3.353216	0.023450	3.575121
116.099435	4030.891981	3.358221	0.023392	3.577615
116.095964	4036.892633	3.363226	0.023391	3.580074
116.198894	4042.937141	3.368230	0.023370	3.582561
116.174320	4048.912773	3.373235	0.023373	3.585005
116.527316	4054.928691	3.378240	0.023306	3.587504
116.674551	4060.919992	3.383245	0.023276	3.589969
116.973404	4066.938963	3.388250	0.023219	3.592460
117.128564	4072.942747	3.393254	0.023188	3.594928
117.330144	4078.974490	3.398259	0.023149	3.597410
117.439186	4084.938327	3.403264	0.023127	3.599853
117.710317	4090.983229	3.408269	0.023075	3.602345
117.676881	4096.926860	3.413274	0.023079	3.604761
117.910467	4102.966292	3.418278	0.023034	3.607243
117.831206	4108.953092	3.423283	0.023047	3.609669
117.975095	4114.958357	3.428288	0.023019	3.612124
117.926887	4120.965073	3.433293	0.023027	3.614557
118.175949	4126.978733	3.438298	0.022978	3.617024
118.243974	4132.967009	3.443302	0.022964	3.619459
118.448309	4138.999211	3.448307	0.022924	3.621925
118.561831	4144.976077	3.453312	0.022901	3.624357
118.623418	4151.006867	3.458317	0.022888	3.626803
118.720710	4157.009261	3.463322	0.022869	3.629241
118.924510	4163.013432	3.468326	0.022829	3.631688
118.938673	4169.007821	3.473331	0.022825	3.634110
119.117697	4175.052223	3.478336	0.022790	3.636568
119.270318	4181.010104	3.483341	0.022760	3.638987
119.363427	4187.050297	3.488346	0.022741	3.641431
119.350996	4193.063129	3.493350	0.022742	3.643851
119.628052	4199.071378	3.498355	0.022688	3.646298
119.579141	4205.079249	3.503360	0.022696	3.648709
119.804493	4211.083523	3.508365	0.022652	3.651146
119.726091	4217.059605	3.513370	0.022665	3.653538
119.897944	4223.071101	3.518374	0.022631	3.655969
120.114338	4229.116396	3.523379	0.022589	3.658416
120.316821	4235.084527	3.528384	0.022550	3.660829
120.324539	4241.107147	3.533389	0.022547	3.663243
120.718646	4247.106268	3.538394	0.022471	3.665685
120.710315	4253.135635	3.543398	0.022472	3.668096
120.816092	4259.130086	3.548403	0.022450	3.670504
120.745909	4265.162267	3.553408	0.022462	3.672906
120.848739	4271.134911	3.558413	0.022441	3.675301
120.913658	4277.171380	3.563418	0.022427	3.677717
121.070695	4283.171640	3.568422	0.022397	3.680125
121.100167	4289.168819	3.573427	0.022389	3.682518
121.375880	4295.170004	3.578432	0.022336	3.684936
121.473979	4301.191170	3.583437	0.022316	3.687342
121.599071	4307.186597	3.588442	0.022291	3.689739
121.479611	4313.198574	3.593446	0.022312	3.692116
121.767043	4319.204166	3.598451	0.022257	3.694531
122.024550	4325.191611	3.603456	0.022207	3.696934
122.197721	4331.218894	3.608461	0.022173	3.699342
122.243829	4337.237872	3.613466	0.022163	3.701732
122.492009	4343.220789	3.618470	0.022115	3.704128
122.350659	4349.271989	3.623475	0.022140	3.706509
122.477877	4355.252726	3.628480	0.022115	3.708888
122.447426	4361.239001	3.633485	0.022119	3.711251
122.546131	4367.303548	3.638490	0.022099	3.713657
122.637760	4373.272644	3.643494	0.022080	3.716024
122.855741	4379.287716	3.648499	0.022038	3.718419
122.845661	4385.282617	3.653504	0.022038	3.720782
122.945638	4391.299214	3.658509	0.022018	3.723163
123.271901	4397.272336	3.663514	0.021955	3.725549
123.424945	4403.333245	3.668518	0.021925	3.727949
123.376649	4409.288215	3.673523	0.021933	3.730287
123.696902	4415.333475	3.678528	0.021871	3.732695
123.795499	4421.302414	3.683533	0.021851	3.735050
123.986126	4427.360766	3.688538	0.021814	3.737447
124.051522	4433.302066	3.693542	0.021800	3.739785
124.191338	4439.369211	3.698547	0.021772	3.742177
124.235151	4445.363432	3.703552	0.021763	3.744530
124.503454	4451.385093	3.708557	0.021711	3.746915
124.556273	4457.351184	3.713562	0.021699	3.749255
124.630912	4463.400149	3.718566	0.021684	3.751628
124.694305	4469.371925	3.723571	0.021670	3.753968
124.847796	4475.399834	3.728576	0.021640	3.756338
124.765112	4481.409695	3.733581	0.021654	3.758676
125.027586	4487.415351	3.738586	0.021603	3.761044
124.957759	4493.423868	3.743590	0.021615	3.763380
125.173596	4499.428162	3.748595	0.021573	3.765740
125.257023	4505.447243	3.753600	0.021556	3.768092
125.392439	4511.440174	3.758605	0.021529	3.770437
125.596376	4517.419651	3.763610	0.021489	3.772783
125.766603	4523.462053	3.768614	0.021456	3.775148
125.834800	4529.457587	3.773619	0.021442	3.777483
125.973366	4535.457689	3.778624	0.021414	3.779825
126.055823	4541.482108	3.783629	0.021397	3.782170
126.165923	4547.481617	3.788634	0.021375	3.784507
126.181483	4553.500534	3.793638	0.021371	3.786840
126.153495	4559.502628	3.798643	0.021374	3.789161
126.205964	4565.507607	3.803648	0.021363	3.791490
126.308697	4571.523911	3.808653	0.021342	3.793826
126.484890	4577.527213	3.813658	0.021308	3.796164
126.603208	4583.523699	3.818662	0.021284	3.798491
126.803827	4589.535722	3.823667	0.021245	3.800831
126.913736	4595.561238	3.828672	0.021223	3.803166
126.982715	4601.544826	3.833677	0.021208	3.805479
127.035438	4607.574237	3.838682	0.021197	3.807807
127.135266	4613.526685	3.843686	0.021177	3.810109
127.281352	4619.590558	3.848691	0.021148	3.812456
127.277269	4625.562433	3.853696	0.021147	3.814753
127.520772	4631.612021	3.858701	0.021100	3.817101
127.486915	4637.549826	3.863706	0.021105	3.819378
127.510168	4643.639682	3.868710	0.021099	3.821718
127.659625	4649.572519	3.873715	0.021069	3.824009
127.933535	4655.639386	3.878720	0.021017	3.826361
127.972745	4661.605295	3.883725	0.021008	3.828651
128.142673	4667.647610	3.888730	0.020974	3.830980
128.329718	4673.602946	3.893734	0.020938	3.833277
128.569315	4679.667332	3.898739	0.020891	3.835619
128.841904	4685.612180	3.903744	0.020839	3.837918
129.232198	4691.664070	3.908749	0.020764	3.840266
129.214902	4697.680625	3.913754	0.020766	3.842562
129.664781	4703.654226	3.918758	0.020680	3.844883
129.768954	4709.692343	3.923763	0.020659	3.847195
130.008565	4715.726163	3.928768	0.020612	3.849517
129.978198	4721.689198	3.933773	0.020617	3.851785
130.157229	4727.708389	3.938778	0.020581	3.854093
130.297247	4733.691611	3.943782	0.020554	3.856382
130.631706	4739.708691	3.948787	0.020489	3.858701
130.759922	4745.720212	3.953792	0.020464	3.860997
130.906558	4751.721802	3.958797	0.020435	3.863289
131.018457	4757.756121	3.963802	0.020412	3.865589
131.127117	4763.733946	3.968806	0.020391	3.867867
131.220455	4769.747937	3.973811	0.020372	3.870155
131.407609	4775.768113	3.978816	0.020335	3.872453
131.353618	4781.744551	3.983821	0.020344	3.874710
131.592929	4787.779830	3.988826	0.020297	3.877016
131.541536	4793.776715	3.993830	0.020305	3.879278
131.787025	4799.769848	3.998835	0.020258	3.881566
131.683758	4805.803800	4.003840	0.020276	3.883835
131.883860	4811.813564	4.008845	0.020237	3.886122
131.800999	4817.799910	4.013850	0.020251	3.888373
132.251092	4823.808120	4.018854	0.020165	3.890679
132.690715	4829.801934	4.023859	0.020081	3.892978
132.896849	4835.830592	4.028864	0.020041	3.895267
133.094818	4841.810940	4.033869	0.020002	3.897536
133.404018	4847.859170	4.038874	0.019942	3.899839
133.510033	4853.831682	4.043878	0.019921	3.902094
133.646376	4859.880972	4.048883	0.019894	3.904379
133.747974	4865.860780	4.053888	0.019873	3.906633
133.786344	4871.877721	4.058893	0.019865	3.908894
133.859629	4877.883879	4.063898	0.019850	3.911154
134.187429	4883.903603	4.068902	0.019787	3.913439
134.192932	4889.899900	4.073907	0.019784	3.915686
134.419413	4895.886275	4.078912	0.019740	3.917948
134.339238	4901.915225	4.083917	0.019754	3.920196
134.581451	4907.933254	4.088922	0.019707	3.922468
134.578400	4913.906249	4.093926	0.019706	3.924700
134.737138	4919.966550	4.098931	0.019674	3.926978
134.836103	4925.927718	4.103936	0.019654	3.929212
134.999047	4931.962303	4.108941	0.019622	3.931478
135.030991	4937.928103	4.113946	0.019615	3.933705
135.039751	4943.983325	4.118950	0.019612	3.935963
135.005310	4949.970232	4.123955	0.019617	3.938189
135.346932	4955.985996	4.128960	0.019551	3.940459
135.222965	4961.981107	4.133965	0.019573	3.942678
135.426161	4967.995163	4.138970	0.019533	3.944932
135.390912	4973.963156	4.143974	0.019538	3.947146
135.632331	4980.035570	4.148979	0.019492	3.949423
135.667492	4986.016239	4.153984	0.019484	3.951646
135.894830	4992.018313	4.158989	0.019439	3.953892
135.832088	4998.026687	4.163994	0.019450	3.956114
135.958900	5004.033592	4.168998	0.019424	3.958351
135.931043	5010.044608	4.174003	0.019428	3.960575
135.944849	5016.053271	4.179008	0.019424	3.962800
136.012175	5022.068600	4.184013	0.019410	3.965031
136.307329	5028.033922	4.189018	0.019353	3.967262
136.238574	5034.058091	4.194022	0.019365	3.969482
136.448116	5040.114115	4.199027	0.019324	3.971737
136.452841	5046.080210	4.204032	0.019321	3.973939
136.579660	5052.101887	4.209037	0.019296	3.976171
136.694283	5058.067214	4.214042	0.019273	3.978380
136.724190	5064.128054	4.219046	0.019266	3.980616
136.939426	5070.085616	4.224051	0.019224	3.982828
137.017603	5076.132521	4.229056	0.019208	3.985061
136.924479	5082.124926	4.234061	0.019224	3.987257
137.031773	5088.152172	4.239066	0.019202	3.989482
137.226169	5094.140985	4.244070	0.019164	3.991699
137.390092	5100.163379	4.249075	0.019132	3.993925
137.379524	5106.153829	4.254080	0.019133	3.996122
137.427435	5112.145690	4.259085	0.019122	3.998324
137.566714	5118.176404	4.264090	0.019094	4.000547
137.647146	5124.179229	4.269094	0.019078	4.002753
137.660871	5130.190879	4.274099	0.019074	4.004956
137.811840	5136.208528	4.279104	0.019044	4.007171
137.896255	5142.197419	4.284109	0.019027	4.009369
138.041594	5148.226567	4.289114	0.018998	4.011586
138.025668	5154.208959	4.294118	0.018999	4.013770
138.254085	5160.220202	4.299123	0.018955	4.015985
138.259024	5166.196587	4.304128	0.018953	4.018167
138.431837	5172.238749	4.309133	0.018919	4.020386
138.482333	5178.222181	4.314138	0.018908	4.022571
138.644216	5184.258236	4.319142	0.018876	4.024784
138.584647	5190.231151	4.324147	0.018886	4.026955
138.697504	5196.283640	4.329152	0.018863	4.029167
138.810570	5202.266489	4.334157	0.018840	4.031353
138.907029	5208.289152	4.339162	0.018821	4.033551
138.963157	5214.279863	4.344166	0.018809	4.035733
139.068173	5220.294258	4.349171	0.018787	4.037926
139.235040	5226.277774	4.354176	0.018755	4.040112
139.500865	5232.285466	4.359181	0.018703	4.042314
139.594355	5238.316837	4.364186	0.018684	4.044509
139.919578	5244.304545	4.369190	0.018622	4.046706
139.900321	5250.299810	4.374195	0.018624	4.048876
139.974818	5256.367961	4.379200	0.018608	4.051079
140.204489	5262.295550	4.384205	0.018564	4.053242
140.350600	5268.379644	4.389210	0.018535	4.055455
140.292254	5274.332174	4.394214	0.018544	4.057601
140.418508	5280.382551	4.399219	0.018519	4.059797
140.573915	5286.347338	4.404224	0.018489	4.061963
140.694514	5292.398724	4.409229	0.018464	4.064157
140.747553	5298.395437	4.414234	0.018453	4.066324
140.884306	5304.380374	4.419238	0.018426	4.068492
141.056300	5310.388174	4.424243	0.018392	4.070671
141.283863	5316.406404	4.429248	0.018348	4.072857
141.407604	5322.401558	4.434253	0.018323	4.075024
141.484941	5328.414985	4.439258	0.018307	4.077193
141.607962	5334.423742	4.444262	0.018283	4.079364
141.712910	5340.465986	4.449267	0.018261	4.081543
141.841513	5346.426060	4.454272	0.018236	4.083694
141.980138	5352.484488	4.459277	0.018208	4.085880
141.911986	5358.435219	4.464282	0.018220	4.088008
142.036918	5364.483244	4.469286	0.018195	4.090187
142.096444	5370.440597	4.474291	0.018182	4.092326
142.176529	5376.499279	4.479296	0.018166	4.094503
142.311801	5382.454367	4.484301	0.018139	4.096645
142.507578	5388.520131	4.489306	0.018100	4.098831
142.532528	5394.505983	4.494310	0.018094	4.100974
142.716861	5400.506641	4.499315	0.018058	4.103133
142.716896	5406.509757	4.504320	0.018057	4.105277
142.872245	5412.508586	4.509325	0.018026	4.107432
142.782193	5418.526295	4.514330	0.018042	4.109571
142.973165	5424.519883	4.519334	0.018004	4.111724
142.891946	5430.537460	4.524339	0.018018	4.113863
143.036101	5436.582267	4.529344	0.017989	4.116028
143.111351	5442.542487	4.534349	0.017974	4.118156
143.153602	5448.592292	4.539354	0.017964	4.120312
143.158310	5454.546693	4.544358	0.017962	4.122431
143.404244	5460.586489	4.549363	0.017914	4.124598
143.358293	5466.557729	4.554368	0.017922	4.126716
143.696496	5472.598908	4.559373	0.017857	4.128888
143.679127	5478.605987	4.564378	0.017858	4.131019
143.953947	5484.584416	4.569382	0.017805	4.133162
143.975706	5490.615328	4.574387	0.017800	4.135302
144.180909	5496.610591	4.579392	0.017760	4.137443
144.173409	5502.630599	4.584397	0.017760	4.139575
144.255603	5508.642302	4.589402	0.017743	4.141710
144.332833	5514.638845	4.594406	0.017727	4.143838
144.431389	5520.648712	4.599411	0.017707	4.145971
144.312734	5526.631968	4.604416	0.017728	4.148076
144.656754	5532.658251	4.609421	0.017662	4.150233
144.595097	5538.666660	4.614426	0.017672	4.152349
144.761990	5544.688726	4.619430	0.017639	4.154488
144.797272	5550.656742	4.624435	0.017631	4.156596
145.023898	5556.705358	4.629440	0.017587	4.158746
145.144782	5562.683415	4.634445	0.017562	4.160863
145.317499	5568.710595	4.639450	0.017529	4.162999
145.390806	5574.724156	4.644454	0.017513	4.165122
145.436355	5580.723059	4.649459	0.017503	4.167236
145.598650	5586.728247	4.654464	0.017471	4.169360
145.707182	5592.718365	4.659469	0.017450	4.171474
145.900499	5598.732653	4.664474	0.017412	4.173602
145.962981	5604.764145	4.669478	0.017399	4.175725
146.022786	5610.736152	4.674483	0.017386	4.177825
146.062758	5616.794841	4.679488	0.017377	4.179954
146.151365	5622.749615	4.684493	0.017359	4.182048
146.290957	5628.789652	4.689498	0.017331	4.184175
146.305387	5634.749175	4.694502	0.017327	4.186264
146.436609	5640.807968	4.699507	0.017301	4.188395
146.529412	5646.789171	4.704512	0.017282	4.190495
146.769610	5652.796998	4.709517	0.017235	4.192614
146.818574	5658.798512	4.714522	0.017225	4.194716
146.863832	5664.786894	4.719526	0.017215	4.196811
147.050651	5670.819415	4.724531	0.017178	4.198932
147.144746	5676.860352	4.729536	0.017159	4.201047
147.247130	5682.826447	4.734541	0.017138	4.203136
147.332962	5688.874447	4.739546	0.017121	4.205251
147.332518	5694.817304	4.744550	0.017119	4.207322
147.534481	5700.893314	4.749555	0.017080	4.209454
147.568982	5706.847904	4.754560	0.017072	4.211530
147.621969	5712.878563	4.759565	0.017060	4.213632
147.740002	5718.860236	4.764570	0.017037	4.215721
147.912525	5724.901230	4.769574	0.017003	4.217834
148.060546	5730.886890	4.774579	0.016974	4.219925
148.152369	5736.896909	4.779584	0.016955	4.222019
148.238125	5742.894186	4.784589	0.016937	4.224107
148.281722	5748.914508	4.789594	0.016928	4.226199
148.329320	5754.911737	4.794598	0.016917	4.228282
148.412673	5760.937461	4.799603	0.016900	4.230376
148.462246	5766.935729	4.804608	0.016889	4.232458
148.566462	5772.971032	4.809613	0.016868	4.234555
148.745682	5778.920799	4.814618	0.016833	4.236627
148.742541	5784.966616	4.819622	0.016832	4.238718
148.832642	5790.951728	4.824627	0.016814	4.240794
149.109863	5796.986707	4.829632	0.016760	4.242900
149.229690	5802.973170	4.834637	0.016737	4.244976
149.295673	5808.971615	4.839642	0.016723	4.247052
149.401981	5814.987789	4.844646	0.016701	4.249136
149.864099	5821.000301	4.849651	0.016613	4.251244
149.979681	5826.987027	4.854656	0.016590	4.253316
150.238935	5833.029860	4.859661	0.016540	4.255417
150.450006	5839.016400	4.864666	0.016499	4.257494
150.668958	5845.018765	4.869670	0.016456	4.259576
150.797785	5851.020971	4.874675	0.016430	4.261650
150.915568	5857.073958	4.879680	0.016407	4.263740
151.080892	5863.024276	4.884685	0.016374	4.265797
151.222600	5869.056277	4.889690	0.016346	4.267879
151.228689	5875.072343	4.894694	0.016344	4.269945
151.429528	5881.064800	4.899699	0.016304	4.272016
151.463399	5887.087124	4.904704	0.016297	4.274084
151.662077	5893.062317	4.909709	0.016258	4.276147
151.762778	5899.082523	4.914714	0.016237	4.278218
151.740861	5905.122933	4.919718	0.016240	4.280285
151.946998	5911.099924	4.924723	0.016200	4.282346
152.119487	5917.102622	4.929728	0.016166	4.284412
152.073807	5923.094827	4.934733	0.016173	4.286458
152.224732	5929.155532	4.939738	0.016143	4.288541
152.224056	5935.097252	4.944742	0.016142	4.290571
152.351164	5941.160747	4.949747	0.016117	4.292651
152.381218	5947.164739	4.954752	0.016109	4.294702
152.449127	5953.142471	4.959757	0.016095	4.296746
152.427786	5959.150383	4.964762	0.016098	4.298794
152.748033	5965.175289	4.969766	0.016036	4.300870
152.694641	5971.181175	4.974771	0.016045	4.302912
152.941200	5977.160822	4.979776	0.015997	4.304966
152.978723	5983.164085	4.984781	0.015988	4.307012
153.053371	5989.231168	4.989786	0.015973	4.309082
153.038069	5995.188989	4.994790	0.015974	4.311106
153.224323	5999.309622	4.999795	0.015938	4.312520
153.280947	5999.382112	5.004800	0.015928	4.312549
153.269799	5999.417555	5.009805	0.015930	4.312560
153.172910	5999.351785	5.014810	0.015948	4.312531
153.273003	5999.417793	5.019814	0.015929	4.312560
153.335194	5999.388958	5.024819	0.015918	4.312555
153.288316	5999.437507	5.029824	0.015926	4.312568
153.338702	5999.316551	5.034829	0.015917	4.312531
153.377510	5999.419471	5.039834	0.015910	4.312568
153.397901	5999.382982	5.044838	0.015906	4.312558
153.522470	5999.356510	5.049843	0.015882	4.312558
153.565721	5999.338131	5.054848	0.015874	4.312554
153.609336	5999.398687	5.059853	0.015866	4.312578
153.533704	5999.417516	5.064858	0.015880	4.312579
153.647707	5999.315196	5.069862	0.015859	4.312553
153.664342	5999.411804	5.074867	0.015856	4.312587
153.574737	5999.450140	5.079872	0.015873	4.312593
153.516110	5999.344080	5.084877	0.015884	4.312553
153.711604	5999.427486	5.089882	0.015847	4.312595
153.659652	5999.355838	5.094886	0.015857	4.312567
153.832038	5999.445993	5.099891	0.015824	4.312610
153.708032	5999.317076	5.104896	0.015848	4.312558
153.772308	5999.397129	5.109901	0.015836	4.312589
153.775462	5999.361546	5.114906	0.015835	4.312578
153.753677	5999.400170	5.119910	0.015839	4.312589
153.677074	5999.372348	5.124915	0.015853	4.312574
153.884551	5999.471585	5.129920	0.015814	4.312623
153.730531	5999.323320	5.134925	0.015843	4.312561
153.773176	5999.424508	5.139930	0.015835	4.312599
153.746839	5999.400704	5.144934	0.015840	4.312589
153.833928	5999.373010	5.149939	0.015824	4.312586
153.851674	5999.350863	5.154944	0.015821	4.312579
153.890296	5999.447395	5.159949	0.015813	4.312615
153.818070	5999.397511	5.164954	0.015827	4.312593
153.970075	5999.338565	5.169958	0.015798	4.312584
153.983640	5999.436746	5.174963	0.015796	4.312618
153.944099	5999.367054	5.179968	0.015803	4.312592
154.032131	5999.358453	5.184973	0.015787	4.312595
153.944816	5999.444078	5.189978	0.015803	4.312618
153.933865	5999.330641	5.194982	0.015805	4.312578
154.026781	5999.418391	5.199987	0.015788	4.312615
153.978887	5999.393656	5.204992	0.015797	4.312603
154.060162	5999.358928	5.209997	0.015782	4.312597
154.035928	5999.431148	5.215002	0.015786	4.312620
154.001538	5999.427430	5.220006	0.015792	4.312616
154.135878	5999.315275	5.225011	0.015767	4.312588
154.166878	5999.400564	5.230016	0.015761	4.312619
154.057144	5999.419289	5.235021	0.015782	4.312617
154.027675	5999.361238	5.240026	0.015788	4.312596
154.028525	5999.396889	5.245030	0.015787	4.312608
154.110602	5999.413441	5.250035	0.015772	4.312619
154.174303	5999.398067	5.255040	0.015760	4.312619
154.190633	5999.341309	5.260045	0.015757	4.312601
154.143012	5999.430443	5.265050	0.015766	4.312627
154.324251	5999.411223	5.270054	0.015732	4.312634
154.251011	5999.405655	5.275059	0.015746	4.312627
154.375411	5999.383814	5.280064	0.015722	4.312628
154.286910	5999.398026	5.285069	0.015739	4.312627
154.373082	5999.375121	5.290074	0.015723	4.312625
154.304179	5999.383331	5.295078	0.015736	4.312623
154.352480	5999.379499	5.300083	0.015727	4.312625
154.492730	5999.358884	5.305088	0.015700	4.312628
154.362852	5999.404858	5.310093	0.015725	4.312635
154.320784	5999.393584	5.315098	0.015733	4.312628
154.367659	5999.387299	5.320102	0.015724	4.312629
154.354870	5999.390935	5.325107	0.015726	4.312629
154.510211	5999.400189	5.330112	0.015697	4.312644
154.627947	5999.429379	5.335117	0.015675	4.312662
154.548103	5999.370087	5.340122	0.015690	4.312636
154.289492	5999.396559	5.345126	0.015738	4.312627
154.340387	5999.387581	5.350131	0.015729	4.312627
154.298864	5999.401918	5.355136	0.015737	4.312629
154.427043	5999.397649	5.360141	0.015713	4.312637
154.483609	5999.375522	5.365146	0.015702	4.312633
154.326719	5999.441937	5.370150	0.015731	4.312645
154.380797	5999.400126	5.375155	0.015721	4.312634
154.382210	5999.417283	5.380160	0.015721	4.312640
154.420421	5999.391706	5.385165	0.015714	4.312634
154.545104	5999.391856	5.390170	0.015691	4.312643
154.631769	5999.359658	5.395174	0.015674	4.312639
154.677493	5999.383937	5.400179	0.015666	4.312650
154.469320	5999.363858	5.405184	0.015705	4.312628
154.394094	5999.400057	5.410189	0.015719	4.312635
154.599314	5999.421682	5.415194	0.015680	4.312657
154.566089	5999.407610	5.420198	0.015687	4.312650
154.606352	5999.348521	5.425203	0.015679	4.312633
154.448396	5999.385761	5.430208	0.015709	4.312634
154.484126	5999.407570	5.435213	0.015702	4.312644
154.466574	5999.410381	5.440218	0.015705	4.312644
154.570146	5999.392047	5.445222	0.015686	4.312645
154.762379	5999.364980	5.450227	0.015650	4.312650
154.654589	5999.403505	5.455232	0.015670	4.312655
154.556037	5999.371157	5.460237	0.015688	4.312637
154.577632	5999.362893	5.465242	0.015684	4.312636
154.611603	5999.457660	5.470246	0.015678	4.312671
154.665662	5999.350618	5.475251	0.015668	4.312638
154.714223	5999.425747	5.480256	0.015659	4.312667
154.780921	5999.370228	5.485261	0.015646	4.312653
154.683647	5999.413868	5.490266	0.015665	4.312661
154.753149	5999.414719	5.495270	0.015651	4.312666
154.764303	5999.349871	5.500275	0.015649	4.312645
154.718824	5999.451414	5.505280	0.015658	4.312676
154.848648	5999.332867	5.510285	0.015634	4.312645
154.738667	5999.436172	5.515290	0.015654	4.312672
154.607155	5999.365807	5.520294	0.015679	4.312639
154.653660	5999.354087	5.525299	0.015670	4.312638
154.756407	5999.458129	5.530304	0.015651	4.312681
154.785452	5999.335270	5.535309	0.015645	4.312642
154.822647	5999.439459	5.540314	0.015638	4.312680
154.792620	5999.370498	5.545318	0.015644	4.312654
154.781069	5999.395923	5.550323	0.015646	4.312662
154.847898	5999.418474	5.555328	0.015634	4.312674
154.915717	5999.375580	5.560333	0.015621	4.312665
154.891367	5999.436801	5.565338	0.015626	4.312684
154.767342	5999.347387	5.570342	0.015649	4.312644
154.891156	5999.429496	5.575347	0.015626	4.312681
154.907666	5999.364428	5.580352	0.015622	4.312660
154.818573	5999.423787	5.585357	0.015639	4.312674
154.947878	5999.408255	5.590362	0.015615	4.312678
154.958316	5999.309563	5.595366	0.015613	4.312645
154.921733	5999.441374	5.600371	0.015620	4.312687
154.945065	5999.421716	5.605376	0.015615	4.312682
154.894855	5999.359800	5.610381	0.015625	4.312658
154.927306	5999.345554	5.615386	0.015619	4.312655
155.029980	5999.425723	5.620390	0.015600	4.312690
155.095082	5999.421996	5.625395	0.015587	4.312693
155.010596	5999.417898	5.630400	0.015603	4.312686
154.961986	5999.306026	5.635405	0.015612	4.312644
154.916368	5999.418625	5.640410	0.015621	4.312679
154.976784	5999.439783	5.645414	0.015610	4.312691
155.070331	5999.373965	5.650419	0.015592	4.312675
155.098038	5999.348783	5.655424	0.015587	4.312669
155.051535	5999.393579	5.660429	0.015595	4.312681
155.072455	5999.419454	5.665434	0.015592	4.312691
154.988924	5999.420665	5.670438	0.015607	4.312685
154.868067	5999.328740	5.675443	0.015630	4.312645
155.136259	5999.414166	5.680448	0.015580	4.312694
155.102862	5999.436882	5.685453	0.015586	4.312699
154.959138	5999.405862	5.690458	0.015613	4.312678
154.940584	5999.325275	5.695462	0.015616	4.312649
154.934358	5999.438692	5.700467	0.015617	4.312687
155.106316	5999.409502	5.705472	0.015585	4.312690
155.185151	5999.361511	5.710477	0.015570	4.312679
155.136753	5999.374552	5.715482	0.015579	4.312680
155.045343	5999.427053	5.720486	0.015597	4.312691
155.044453	5999.421729	5.725491	0.015597	4.312690
155.050822	5999.382705	5.730496	0.015596	4.312677
154.991081	5999.332921	5.735501	0.015607	4.312656
155.261890	5999.394821	5.740506	0.015556	4.312696
155.077180	5999.423963	5.745510	0.015591	4.312693
154.952403	5999.426588	5.750515	0.015614	4.312685
154.973495	5999.301743	5.755520	0.015610	4.312644
155.002521	5999.415019	5.760525	0.015605	4.312684
155.222864	5999.398519	5.765530	0.015563	4.312695
155.243149	5999.402478	5.770534	0.015560	4.312697
155.251181	5999.393421	5.775539	0.015558	4.312695
155.134615	5999.369493	5.780544	0.015580	4.312678
155.119044	5999.353507	5.785549	0.015583	4.312672
155.210584	5999.425018	5.790554	0.015566	4.312703
155.273230	5999.410788	5.795558	0.015554	4.312702
155.287727	5999.417814	5.800563	0.015551	4.312706
155.209069	5999.356429	5.805568	0.015566	4.312679
155.052128	5999.407235	5.810573	0.015595	4.312685
155.157335	5999.331588	5.815578	0.015576	4.312667
155.328713	5999.402673	5.820582	0.015543	4.312704
155.333627	5999.386928	5.825587	0.015543	4.312699
155.288471	5999.386416	5.830592	0.015551	4.312695
155.319681	5999.405511	5.835597	0.015545	4.312704
155.322838	5999.416785	5.840602	0.015545	4.312708
155.479191	5999.392750	5.845606	0.015515	4.312711
155.167811	5999.411136	5.850611	0.015574	4.312695
155.316099	5999.376870	5.855616	0.015546	4.312694
155.342691	5999.408891	5.860621	0.015541	4.312707
155.472985	5999.372936	5.865626	0.015516	4.312704
155.383395	5999.380028	5.870630	0.015533	4.312700
155.466803	5999.383438	5.875635	0.015518	4.312707
155.526942	5999.407412	5.880640	0.015506	4.312720
155.384345	5999.369719	5.885645	0.015533	4.312696
155.215644	5999.382596	5.890650	0.015565	4.312689
155.387656	5999.381879	5.895654	0.015532	4.312701
155.364892	5999.404174	5.900659	0.015537	4.312707
155.447065	5999.407846	5.905664	0.015521	4.312714
155.358978	5999.398999	5.910669	0.015538	4.312705
155.461926	5999.395500	5.915674	0.015518	4.312711
155.474674	5999.402898	5.920678	0.015516	4.312714
155.578805	5999.393636	5.925683	0.015497	4.312719
155.509881	5999.392661	5.930688	0.015509	4.312713
155.502174	5999.401649	5.935693	0.015511	4.312716
155.386057	5999.392326	5.940698	0.015533	4.312704
155.556622	5999.404781	5.945702	0.015501	4.312721
155.465993	5999.406581	5.950707	0.015518	4.312715
155.486049	5999.382105	5.955712	0.015514	4.312708
155.488399	5999.409170	5.960717	0.015514	4.312717
155.592704	5999.386088	5.965722	0.015494	4.312717
155.500443	5999.383640	5.970726	0.015511	4.312710
155.378930	5999.394759	5.975731	0.015534	4.312705
155.586897	5999.393754	5.980736	0.015495	4.312719
155.617207	5999.376288	5.985741	0.015489	4.312716
155.484436	5999.408175	5.990746	0.015514	4.312717
155.556278	5999.399341	5.995750	0.015501	4.312719
155.544354	5999.392687	6.000755	0.015503	4.312716
155.723861	5999.385784	6.005760	0.015469	4.312726
155.814490	5999.394092	6.010765	0.015452	4.312736
155.587710	5999.388068	6.015770	0.015495	4.312717
155.562449	5999.411812	6.020774	0.015500	4.312724
155.388370	5999.363351	6.025779	0.015532	4.312695
155.521152	5999.392104	6.030784	0.015507	4.312714
155.560635	5999.387389	6.035789	0.015500	4.312715
155.723282	5999.381313	6.040794	0.015469	4.312725
155.633515	5999.399468	6.045798	0.015486	4.312725
155.575613	5999.394314	6.050803	0.015497	4.312719
155.540086	5999.390837	6.055808	0.015504	4.312715
155.536225	5999.386144	6.060813	0.015505	4.312713
155.676742	5999.380176	6.065818	0.015478	4.312721
155.710974	5999.384847	6.070822	0.015472	4.312725
155.699775	5999.385389	6.075827	0.015474	4.312725
155.671579	5999.401487	6.080832	0.015479	4.312728
155.648373	5999.389880	6.085837	0.015483	4.312722
155.707148	5999.403118	6.090842	0.015472	4.312731
155.705185	5999.393428	6.095846	0.015473	4.312728
155.661355	5999.392634	6.100851	0.015481	4.312724
155.722198	5999.375112	6.105856	0.015470	4.312723
155.678304	5999.402815	6.110861	0.015478	4.312729
155.610760	5999.390521	6.115866	0.015491	4.312720
155.656991	5999.384373	6.120870	0.015482	4.312721
155.807499	5999.391902	6.125875	0.015454	4.312735
155.712441	5999.411182	6.130880	0.015471	4.312734
155.722073	5999.410973	6.135885	0.015470	4.312735
155.645914	5999.376620	6.140890	0.015484	4.312718
155.888111	5999.401420	6.145894	0.015439	4.312744
155.721834	5999.385296	6.150899	0.015470	4.312726
155.781143	5999.388314	6.155904	0.015459	4.312731
155.853158	5999.391389	6.160909	0.015445	4.312738
155.874436	5999.396975	6.165914	0.015441	4.312741
155.790066	5999.383662	6.170918	0.015457	4.312730
155.811428	5999.389230	6.175923	0.015453	4.312734
155.886866	5999.413629	6.180928	0.015439	4.312748
155.900769	5999.407919	6.185933	0.015436	4.312747
155.930748	5999.395117	6.190938	0.015431	4.312745
155.794327	5999.366217	6.195942	0.015456	4.312725
155.762692	5999.402342	6.200947	0.015462	4.312735
155.791222	5999.374228	6.205952	0.015457	4.312727
155.884544	5999.410448	6.210957	0.015439	4.312746
155.800237	5999.393445	6.215962	0.015455	4.312735
155.911638	5999.367018	6.220966	0.015434	4.312734
156.024344	5999.361447	6.225971	0.015413	4.312740
155.910782	5999.390171	6.230976	0.015434	4.312741
155.936918	5999.379105	6.235981	0.015429	4.312740
156.025234	5999.425577	6.240986	0.015413	4.312762
156.090269	5999.398895	6.245990	0.015401	4.312757
155.942731	5999.431162	6.250995	0.015428	4.312758
155.937530	5999.388163	6.256000	0.015429	4.312743
155.927133	5999.395885	6.261005	0.015431	4.312745
156.113308	5999.365515	6.266010	0.015396	4.312748
156.104723	5999.389392	6.271014	0.015398	4.312755
156.137510	5999.361291	6.276019	0.015392	4.312748
156.083479	5999.397581	6.281024	0.015402	4.312756
156.140610	5999.415764	6.286029	0.015391	4.312767
156.132466	5999.430358	6.291034	0.015393	4.312771
156.075206	5999.377286	6.296038	0.015403	4.312749
156.202084	5999.349409	6.301043	0.015380	4.312749
156.357825	5999.380637	6.306048	0.015350	4.312770
156.333332	5999.387679	6.311053	0.015355	4.312771
156.243193	5999.397643	6.316058	0.015372	4.312768
156.199382	5999.451056	6.321062	0.015380	4.312783
156.307805	5999.385752	6.326067	0.015360	4.312769
156.284354	5999.362250	6.331072	0.015364	4.312759
156.282894	5999.375424	6.336077	0.015364	4.312763
156.317816	5999.409353	6.341082	0.015358	4.312777
156.261545	5999.428660	6.346086	0.015368	4.312780
156.288520	5999.357690	6.351091	0.015363	4.312758
156.289637	5999.368478	6.356096	0.015363	4.312761
156.289988	5999.407915	6.361101	0.015363	4.312775
156.461947	5999.412726	6.366106	0.015331	4.312789
156.381485	5999.368259	6.371110	0.015346	4.312768
156.429634	5999.367217	6.376115	0.015337	4.312771
156.282526	5999.388366	6.381120	0.015365	4.312768
156.381033	5999.435432	6.386125	0.015346	4.312791
156.483987	5999.377721	6.391130	0.015327	4.312779
156.411195	5999.357352	6.396134	0.015340	4.312766
156.404637	5999.426741	6.401139	0.015342	4.312790
156.349909	5999.424586	6.406144	0.015352	4.312785
156.272003	5999.384170	6.411149	0.015366	4.312765
156.486566	5999.358796	6.416154	0.015326	4.312772
156.286027	5999.384866	6.421158	0.015364	4.312767
156.405145	5999.396311	6.426163	0.015341	4.312779
156.396369	5999.436767	6.431168	0.015343	4.312792
156.532961	5999.336993	6.436173	0.015318	4.312768
156.326621	5999.410238	6.441178	0.015356	4.312778
156.380866	5999.418928	6.446182	0.015346	4.312785
156.507141	5999.359937	6.451187	0.015322	4.312774
156.657714	5999.392265	6.456192	0.015294	4.312796
156.645584	5999.383816	6.461197	0.015296	4.312792
156.730986	5999.452044	6.466202	0.015280	4.312822
156.541039	5999.332520	6.471206	0.015316	4.312767
156.495272	5999.400132	6.476211	0.015325	4.312787
156.510216	5999.413497	6.481216	0.015322	4.312793
156.687408	5999.343688	6.486221	0.015289	4.312782
156.549309	5999.438270	6.491226	0.015314	4.312804
156.671732	5999.348856	6.496230	0.015291	4.312782
156.527377	5999.441092	6.501235	0.015319	4.312803
156.651686	5999.320955	6.506240	0.015295	4.312771
156.621804	5999.427461	6.511245	0.015301	4.312805
156.814915	5999.346000	6.516250	0.015265	4.312792
156.637557	5999.443410	6.521254	0.015298	4.312812
156.732273	5999.334155	6.526259	0.015280	4.312782
156.684702	5999.429718	6.531264	0.015289	4.312811
156.817991	5999.383939	6.536269	0.015264	4.312805
156.693407	5999.382843	6.541274	0.015287	4.312795
156.751748	5999.449471	6.546278	0.015276	4.312822
156.646811	5999.331180	6.551283	0.015296	4.312775
156.729056	5999.457049	6.556288	0.015281	4.312823
156.752291	5999.383197	6.561293	0.015276	4.312800
156.771183	5999.359886	6.566298	0.015273	4.312793
156.695854	5999.419997	6.571302	0.015287	4.312808
156.812513	5999.408075	6.576307	0.015265	4.312813
156.494828	5999.372661	6.581312	0.015325	4.312778
156.759081	5999.409320	6.586317	0.015275	4.312809
156.695853	5999.337299	6.591322	0.015287	4.312780
156.879655	5999.414944	6.596326	0.015252	4.312820
156.776265	5999.399237	6.601331	0.015272	4.312807
156.839708	5999.431701	6.606336	0.015260	4.312823
156.837913	5999.398084	6.611341	0.015260	4.312811
156.902888	5999.308012	6.616346	0.015248	4.312785
156.716594	5999.414672	6.621350	0.015283	4.312808
156.784624	5999.437891	6.626355	0.015270	4.312821
156.782670	5999.411659	6.631360	0.015271	4.312812
156.717952	5999.340874	6.636365	0.015283	4.312783
156.619061	5999.422530	6.641370	0.015301	4.312804
156.781076	5999.398215	6.646374	0.015271	4.312807
156.778473	5999.361094	6.651379	0.015271	4.312794
156.785608	5999.431250	6.656384	0.015270	4.312819
156.808554	5999.398808	6.661389	0.015266	4.312809
156.759915	5999.358605	6.666394	0.015275	4.312792
156.857069	5999.371042	6.671398	0.015257	4.312803
156.954506	5999.387095	6.676403	0.015238	4.312816
156.818608	5999.404023	6.681408	0.015264	4.312812
156.921445	5999.410659	6.686413	0.015245	4.312821
156.904474	5999.386698	6.691418	0.015248	4.312812
156.897689	5999.425814	6.696422	0.015249	4.312825
156.832840	5999.405594	6.701427	0.015261	4.312813
156.739400	5999.340911	6.706432	0.015279	4.312785
156.795633	5999.414418	6.711437	0.015268	4.312814
156.974021	5999.403164	6.716442	0.015235	4.312823
156.780386	5999.403875	6.721446	0.015271	4.312809
156.943690	5999.397663	6.726451	0.015240	4.312819
157.038704	5999.362773	6.731456	0.015223	4.312814
156.978188	5999.407792	6.736461	0.015234	4.312824
157.006244	5999.374264	6.741466	0.015229	4.312815
157.130905	5999.401073	6.746470	0.015205	4.312833
157.046059	5999.374075	6.751475	0.015221	4.312818
157.128953	5999.402407	6.756480	0.015206	4.312834
157.077437	5999.384867	6.761485	0.015215	4.312824
157.109390	5999.392780	6.766490	0.015209	4.312829
157.087330	5999.368982	6.771494	0.015213	4.312819
157.132466	5999.380526	6.776499	0.015205	4.312826
157.037224	5999.469678	6.781504	0.015223	4.312850
157.113127	5999.378203	6.786509	0.015209	4.312824
157.106858	5999.361157	6.791514	0.015210	4.312818
157.246894	5999.428806	6.796518	0.015184	4.312851
157.096281	5999.367999	6.801523	0.015212	4.312819
157.216213	5999.377435	6.806528	0.015189	4.312831
157.244837	5999.441189	6.811533	0.015184	4.312855
157.281602	5999.368136	6.816538	0.015177	4.312833
157.374385	5999.409071	6.821542	0.015160	4.312854
157.397987	5999.332382	6.826547	0.015155	4.312829
157.310792	5999.411555	6.831552	0.015172	4.312850
157.382056	5999.436845	6.836557	0.015158	4.312863
157.470658	5999.395048	6.841562	0.015142	4.312856
157.335943	5999.343726	6.846566	0.015167	4.312829
157.338396	5999.410284	6.851571	0.015166	4.312851
157.497898	5999.423260	6.856576	0.015136	4.312867
157.285254	5999.369198	6.861581	0.015176	4.312834
157.368124	5999.380996	6.866586	0.015161	4.312844
157.315036	5999.421680	6.871590	0.015171	4.312854
157.401551	5999.326111	6.876595	0.015155	4.312827
157.279098	5999.433910	6.881600	0.015177	4.312855
157.469309	5999.402686	6.886605	0.015142	4.312858
157.326021	5999.351348	6.891610	0.015169	4.312830
157.494407	5999.404705	6.896614	0.015137	4.312861
157.429340	5999.396476	6.901619	0.015149	4.312853
157.437527	5999.417709	6.906624	0.015148	4.312861
157.459521	5999.353307	6.911629	0.015144	4.312841
157.524778	5999.404685	6.916634	0.015131	4.312863
157.546436	5999.363327	6.921638	0.015127	4.312850
157.644240	5999.455573	6.926643	0.015109	4.312889
157.482955	5999.404381	6.931648	0.015139	4.312860
157.425069	5999.347763	6.936653	0.015150	4.312836
157.503154	5999.445116	6.941658	0.015135	4.312875
157.644548	5999.349833	6.946662	0.015109	4.312853
157.434358	5999.440436	6.951667	0.015148	4.312868
157.530263	5999.311629	6.956672	0.015130	4.312832
157.467535	5999.476576	6.961677	0.015142	4.312883
157.534123	5999.331944	6.966682	0.015130	4.312839
157.726158	5999.395899	6.971686	0.015094	4.312874
157.774465	5999.447203	6.976691	0.015085	4.312895
157.553930	5999.382870	6.981696	0.015126	4.312858
157.662563	5999.395627	6.986701	0.015106	4.312870
157.645855	5999.364258	6.991706	0.015109	4.312858
157.763178	5999.376088	6.996710	0.015087	4.312870
157.583861	5999.450942	7.001715	0.015120	4.312883
157.460045	5999.350439	7.006720	0.015144	4.312840
157.514895	5999.373704	7.011725	0.015133	4.312852
157.725182	5999.455836	7.016730	0.015094	4.312895
157.490703	5999.388952	7.021734	0.015138	4.312855
157.540593	5999.338839	7.026739	0.015128	4.312842
157.459161	5999.429653	7.031744	0.015144	4.312867
157.711964	5999.375942	7.036749	0.015096	4.312867
157.548713	5999.376627	7.041754	0.015127	4.312855
157.601529	5999.394811	7.046758	0.015117	4.312865
157.581376	5999.457902	7.051763	0.015121	4.312885
157.675962	5999.372564	7.056768	0.015103	4.312863
157.664065	5999.385200	7.061773	0.015105	4.312866
157.722826	5999.369959	7.066778	0.015094	4.312865
157.703172	5999.429269	7.071782	0.015098	4.312884
157.733878	5999.357503	7.076787	0.015092	4.312862
157.697695	5999.432270	7.081792	0.015099	4.312885
157.712306	5999.358410	7.086797	0.015096	4.312861
157.797679	5999.413785	7.091802	0.015080	4.312886
157.842739	5999.364698	7.096806	0.015072	4.312872
157.718164	5999.435273	7.101811	0.015095	4.312887
157.746453	5999.373209	7.106816	0.015090	4.312868
157.739957	5999.356211	7.111821	0.015091	4.312862
157.823612	5999.433086	7.116826	0.015075	4.312894
157.939507	5999.369869	7.121830	0.015054	4.312881
157.846014	5999.350219	7.126835	0.015071	4.312868
157.810967	5999.406367	7.131840	0.015078	4.312884
157.879555	5999.415687	7.136845	0.015065	4.312892
157.656414	5999.440122	7.141850	0.015107	4.312884
157.807407	5999.351070	7.146854	0.015078	4.312865
157.714052	5999.428795	7.151859	0.015096	4.312885
157.839906	5999.348759	7.156864	0.015072	4.312867
157.713709	5999.432544	7.161869	0.015096	4.312886
157.791563	5999.393949	7.166874	0.015081	4.312878
157.802327	5999.398095	7.171878	0.015079	4.312881
157.904924	5999.409378	7.176883	0.015060	4.312892
157.969175	5999.370917	7.181888	0.015048	4.312883
158.002449	5999.392334	7.186893	0.015042	4.312893
157.957435	5999.372492	7.191898	0.015050	4.312883
158.039402	5999.374375	7.196902	0.015035	4.312890
157.986211	5999.370054	7.201907	0.015045	4.312884
158.102383	5999.372021	7.206912	0.015023	4.312893
158.036250	5999.359423	7.211917	0.015035	4.312884
158.095081	5999.434222	7.216922	0.015024	4.312914
157.880298	5999.389799	7.221926	0.015065	4.312883
158.029199	5999.373786	7.226931	0.015037	4.312889
157.960651	5999.432458	7.231936	0.015050	4.312904
158.000983	5999.385294	7.236941	0.015042	4.312891
157.864105	5999.396915	7.241946	0.015068	4.312885
158.046471	5999.381144	7.246950	0.015034	4.312893
158.051868	5999.423186	7.251955	0.015032	4.312907
158.236103	5999.345450	7.256960	0.014998	4.312894
158.226135	5999.408217	7.261965	0.015000	4.312915
158.129443	5999.374543	7.266970	0.015018	4.312896
158.028217	5999.442914	7.271974	0.015037	4.312912
158.073967	5999.382653	7.276979	0.015028	4.312895
158.062729	5999.349203	7.281984	0.015030	4.312883
158.098952	5999.440751	7.286989	0.015024	4.312917
157.904806	5999.390106	7.291994	0.015060	4.312885
158.018757	5999.386113	7.296998	0.015039	4.312892
157.861554	5999.394701	7.302003	0.015068	4.312884
157.975215	5999.403634	7.307008	0.015047	4.312895
157.997805	5999.374942	7.312013	0.015043	4.312887
158.074824	5999.393498	7.317018	0.015028	4.312899
158.075256	5999.356650	7.322022	0.015028	4.312886
158.035093	5999.399183	7.327027	0.015036	4.312898
157.851704	5999.402307	7.332032	0.015070	4.312886
158.113447	5999.370590	7.337037	0.015021	4.312894
158.042255	5999.438094	7.342042	0.015034	4.312912
158.263842	5999.379990	7.347046	0.014993	4.312908
158.069260	5999.383653	7.352051	0.015029	4.312895
158.216104	5999.419538	7.357056	0.015002	4.312918
158.101272	5999.420961	7.362061	0.015023	4.312910
158.118090	5999.378793	7.367066	0.015020	4.312897
158.139001	5999.352296	7.372070	0.015016	4.312889
158.087873	5999.394402	7.377075	0.015026	4.312900
158.055367	5999.431632	7.382080	0.015032	4.312910
158.160967	5999.367845	7.387085	0.015012	4.312896
158.111705	5999.360852	7.392090	0.015021	4.312890
158.320428	5999.378076	7.397094	0.014982	4.312911
158.187114	5999.407318	7.402099	0.015007	4.312912
158.269062	5999.403692	7.407104	0.014992	4.312916
158.237008	5999.398556	7.412109	0.014998	4.312912
158.426536	5999.377588	7.417114	0.014962	4.312919
158.243759	5999.399878	7.422118	0.014996	4.312913
158.278735	5999.407150	7.427123	0.014990	4.312918
158.382414	5999.450368	7.432128	0.014970	4.312940
158.388534	5999.382904	7.437133	0.014969	4.312918
158.250496	5999.381906	7.442138	0.014995	4.312908
158.365257	5999.389687	7.447142	0.014974	4.312918
158.283549	5999.379479	7.452147	0.014989	4.312909
158.438655	5999.369499	7.457152	0.014960	4.312917
158.300665	5999.396059	7.462157	0.014986	4.312916
158.370599	5999.390391	7.467162	0.014973	4.312919
158.535267	5999.384813	7.472166	0.014942	4.312929
158.408737	5999.430073	7.477171	0.014966	4.312935
158.483533	5999.398560	7.482176	0.014952	4.312930
158.451032	5999.392600	7.487181	0.014958	4.312926
158.498597	5999.404550	7.492186	0.014949	4.312933
158.507816	5999.417294	7.497190	0.014947	4.312938
158.406948	5999.356938	7.502195	0.014966	4.312910
158.468855	5999.371354	7.507200	0.014954	4.312920
158.291181	5999.387966	7.512205	0.014988	4.312913
158.466831	5999.432434	7.517210	0.014955	4.312940
158.391661	5999.396943	7.522214	0.014969	4.312923
158.441763	5999.383542	7.527219	0.014959	4.312922
158.454935	5999.369716	7.532224	0.014957	4.312918
158.466949	5999.397489	7.537229	0.014955	4.312928
158.380736	5999.381804	7.542234	0.014971	4.312917
158.606822	5999.356746	7.547238	0.014928	4.312925
158.544172	5999.438058	7.552243	0.014940	4.312948
158.568163	5999.382419	7.557248	0.014936	4.312931
158.369772	5999.376782	7.562253	0.014973	4.312914
158.575549	5999.365228	7.567258	0.014934	4.312925
158.414077	5999.446398	7.572262	0.014965	4.312941
158.556625	5999.388546	7.577267	0.014938	4.312932
158.620018	5999.340158	7.582272	0.014926	4.312920
158.614106	5999.382767	7.587277	0.014927	4.312934
158.522535	5999.433465	7.592282	0.014944	4.312945
158.694745	5999.391366	7.597286	0.014912	4.312943
158.606984	5999.362225	7.602291	0.014928	4.312927
158.778859	5999.430471	7.607296	0.014896	4.312962
158.613138	5999.343458	7.612301	0.014927	4.312921
158.621184	5999.461212	7.617306	0.014926	4.312961
158.567930	5999.352143	7.622310	0.014936	4.312920
158.639306	5999.361791	7.627315	0.014922	4.312929
158.579464	5999.427803	7.632320	0.014933	4.312947
158.631091	5999.356185	7.637325	0.014924	4.312926
158.510077	5999.437950	7.642330	0.014947	4.312945
158.584405	5999.352319	7.647334	0.014933	4.312922
158.712163	5999.395936	7.652339	0.014909	4.312946
158.715917	5999.422707	7.657344	0.014908	4.312955
158.727948	5999.407286	7.662349	0.014906	4.312951
158.745329	5999.410945	7.667354	0.014902	4.312953
158.581877	5999.342748	7.672358	0.014933	4.312918
158.643888	5999.410441	7.677363	0.014921	4.312946
158.650329	5999.400802	7.682368	0.014920	4.312943
158.643963	5999.427885	7.687373	0.014921	4.312952
158.590826	5999.338090	7.692378	0.014931	4.312917
158.671457	5999.406422	7.697382	0.014916	4.312946
158.586254	5999.414414	7.702387	0.014932	4.312943
158.582302	5999.345414	7.707392	0.014933	4.312919
158.549900	5999.406515	7.712397	0.014939	4.312937
158.900108	5999.402874	7.717402	0.014873	4.312962
158.913483	5999.364194	7.722406	0.014871	4.312949
158.887348	5999.419370	7.727411	0.014876	4.312966
158.842728	5999.435281	7.732416	0.014884	4.312968
158.727758	5999.334729	7.737421	0.014906	4.312926
158.744078	5999.393750	7.742426	0.014903	4.312947
158.954252	5999.433644	7.747430	0.014863	4.312976
158.948045	5999.409232	7.752435	0.014864	4.312967
158.914589	5999.392446	7.757440	0.014871	4.312959
158.895432	5999.380894	7.762445	0.014874	4.312954
158.937885	5999.391173	7.767450	0.014866	4.312960
158.891418	5999.378990	7.772454	0.014875	4.312953
159.048205	5999.380602	7.777459	0.014846	4.312965
158.928599	5999.404173	7.782464	0.014868	4.312964
158.976219	5999.439086	7.787469	0.014859	4.312979
158.705936	5999.377042	7.792474	0.014910	4.312939
159.063913	5999.405753	7.797478	0.014843	4.312974
158.849595	5999.403497	7.802483	0.014883	4.312958
158.971163	5999.389617	7.807488	0.014860	4.312962
158.704653	5999.408559	7.812493	0.014910	4.312949
158.876743	5999.378432	7.817498	0.014878	4.312952
158.990513	5999.373560	7.822502	0.014856	4.312958
159.017846	5999.405430	7.827507	0.014851	4.312971
158.963413	5999.371965	7.832512	0.014861	4.312956
159.117472	5999.382428	7.837517	0.014833	4.312970
159.063475	5999.373682	7.842522	0.014843	4.312963
159.110949	5999.454574	7.847526	0.014834	4.312994
158.980232	5999.383096	7.852531	0.014858	4.312961
159.155566	5999.366983	7.857536	0.014825	4.312968
159.029138	5999.418654	7.862541	0.014849	4.312976
158.984137	5999.438323	7.867546	0.014858	4.312980
158.844916	5999.373247	7.872550	0.014884	4.312947
159.102117	5999.385690	7.877555	0.014835	4.312970
159.055847	5999.371627	7.882560	0.014844	4.312962
159.127425	5999.444641	7.887565	0.014831	4.312992
158.985465	5999.357172	7.892570	0.014857	4.312952
159.194020	5999.437846	7.897574	0.014818	4.312995
159.051123	5999.356089	7.902579	0.014845	4.312957
159.259105	5999.422181	7.907584	0.014806	4.312994
159.025006	5999.372665	7.912589	0.014850	4.312960
159.113910	5999.353778	7.917594	0.014833	4.312960
159.107615	5999.424956	7.922598	0.014834	4.312984
159.053042	5999.379574	7.927603	0.014845	4.312965
159.095041	5999.447845	7.932608	0.014837	4.312991
159.250611	5999.347711	7.937613	0.014808	4.312968
159.224576	5999.435949	7.942618	0.014812	4.312996
159.111888	5999.368911	7.947622	0.014834	4.312965
159.088943	5999.415139	7.952627	0.014838	4.312979
159.155019	5999.377208	7.957632	0.014826	4.312971
159.108490	5999.407310	7.962637	0.014834	4.312978
159.196503	5999.393207	7.967642	0.014818	4.312980
159.182258	5999.387044	7.972646	0.014820	4.312977
159.106865	5999.426954	7.977651	0.014835	4.312985
159.082416	5999.371496	7.982656	0.014839	4.312964
159.275557	5999.376413	7.987661	0.014803	4.312980
159.146048	5999.433333	7.992666	0.014827	4.312990
159.210637	5999.359879	7.997670	0.014815	4.312969
159.028688	5999.380153	8.002675	0.014849	4.312963
159.215723	5999.406585	8.007680	0.014814	4.312986
159.156715	5999.421877	8.012685	0.014825	4.312987
159.275864	5999.365320	8.017690	0.014803	4.312976
159.299737	5999.433767	8.022694	0.014798	4.313001
159.194597	5999.379828	8.027699	0.014818	4.312975
159.160840	5999.359430	8.032704	0.014824	4.312966
159.216189	5999.368808	8.037709	0.014814	4.312973
159.255330	5999.426659	8.042714	0.014807	4.312995
159.328311	5999.406560	8.047718	0.014793	4.312994
159.207507	5999.378004	8.052723	0.014816	4.312975
159.330584	5999.393211	8.057728	0.014793	4.312989
159.321706	5999.387745	8.062733	0.014794	4.312987
159.364791	5999.436488	8.067738	0.014786	4.313006
159.338291	5999.334598	8.072742	0.014791	4.312970
159.505260	5999.422270	8.077747	0.014760	4.313012
159.263903	5999.391754	8.082752	0.014805	4.312984
159.392977	5999.383632	8.087757	0.014781	4.312991
159.213083	5999.431958	8.092762	0.014815	4.312994
159.330458	5999.340857	8.097766	0.014793	4.312972
159.351119	5999.434798	8.102771	0.014789	4.313005
159.477404	5999.397861	8.107776	0.014765	4.313001
159.256627	5999.340000	8.112781	0.014806	4.312966
159.423234	5999.436019	8.117786	0.014775	4.313011
159.402228	5999.406480	8.122790	0.014779	4.312999
159.586882	5999.390227	8.127795	0.014744	4.313007
159.531921	5999.367900	8.132800	0.014755	4.312995
159.474088	5999.379267	8.137805	0.014766	4.312995
159.431767	5999.411232	8.142810	0.014774	4.313003
159.503001	5999.430102	8.147814	0.014760	4.313014
159.380590	5999.373398	8.152819	0.014783	4.312986
159.441237	5999.377056	8.157824	0.014772	4.312992
159.512210	5999.406090	8.162829	0.014758	4.313007
159.592739	5999.428499	8.167834	0.014743	4.313020
159.359276	5999.410090	8.172838	0.014787	4.312997
159.464093	5999.333603	8.177843	0.014768	4.312979
159.454174	5999.433122	8.182848	0.014769	4.313012
159.544560	5999.413921	8.187853	0.014752	4.313012
159.480673	5999.398086	8.192858	0.014764	4.313002
159.549050	5999.365180	8.197862	0.014752	4.312996
159.621349	5999.404041	8.202867	0.014738	4.313014
159.592439	5999.389965	8.207872	0.014743	4.313007
159.642157	5999.406054	8.212877	0.014734	4.313016
159.565178	5999.387486	8.217882	0.014749	4.313004
159.651808	5999.411356	8.222886	0.014732	4.313019
159.604595	5999.413114	8.227891	0.014741	4.313016
159.595769	5999.403043	8.232896	0.014743	4.313012
159.612432	5999.414207	8.237901	0.014740	4.313017
159.666988	5999.388832	8.242906	0.014729	4.313012
159.825178	5999.415881	8.247910	0.014700	4.313033
159.762138	5999.374133	8.252915	0.014712	4.313014
159.785586	5999.399478	8.257920	0.014707	4.313024
159.690830	5999.381929	8.262925	0.014725	4.313011
159.810712	5999.384951	8.267930	0.014702	4.313021
159.881361	5999.403945	8.272934	0.014689	4.313033
159.928463	5999.388426	8.277939	0.014680	4.313031
159.829092	5999.385641	8.282944	0.014699	4.313023
160.050111	5999.422319	8.287949	0.014658	4.313051
159.959653	5999.402937	8.292954	0.014675	4.313038
160.063816	5999.409298	8.297958	0.014655	4.313048
160.039649	5999.401566	8.302963	0.014660	4.313043
160.036730	5999.411376	8.307968	0.014660	4.313046
159.939579	5999.396173	8.312973	0.014678	4.313034
160.027701	5999.393076	8.317978	0.014662	4.313040
159.881866	5999.395567	8.322982	0.014689	4.313030
160.081507	5999.409216	8.327987	0.014652	4.313049
160.039455	5999.400688	8.332992	0.014660	4.313043
160.044883	5999.424348	8.337997	0.014659	4.313051
160.040871	5999.381088	8.343002	0.014659	4.313036
160.147747	5999.390550	8.348006	0.014639	4.313047
160.120581	5999.379779	8.353011	0.014644	4.313042
160.257634	5999.403048	8.358016	0.014619	4.313060
160.284830	5999.380729	8.363021	0.014614	4.313054
160.328588	5999.411870	8.368026	0.014605	4.313068
160.131787	5999.398535	8.373030	0.014642	4.313049
160.028711	5999.386429	8.378035	0.014662	4.313037
159.966837	5999.391302	8.383040	0.014673	4.313035
160.112421	5999.397135	8.388045	0.014646	4.313047
160.130713	5999.384978	8.393050	0.014642	4.313044
160.103419	5999.432132	8.398054	0.014648	4.313058
160.086180	5999.384329	8.403059	0.014651	4.313041
160.182867	5999.431797	8.408064	0.014633	4.313064
160.191001	5999.394228	8.413069	0.014631	4.313052
160.270641	5999.401204	8.418074	0.014616	4.313060
160.356725	5999.381079	8.423078	0.014600	4.313059
160.404803	5999.389247	8.428083	0.014591	4.313065
160.228953	5999.382489	8.433088	0.014624	4.313051
160.429294	5999.462161	8.438093	0.014586	4.313092
160.277557	5999.385950	8.443098	0.014615	4.313055
160.346188	5999.407212	8.448102	0.014602	4.313067
160.287553	5999.415992	8.453107	0.014613	4.313066
160.361469	5999.401209	8.458112	0.014599	4.313066
160.301387	5999.393754	8.463117	0.014610	4.313060
160.330873	5999.399437	8.468122	0.014605	4.313064
160.403366	5999.409770	8.473126	0.014591	4.313072
160.430248	5999.408655	8.478131	0.014586	4.313074
160.278241	5999.380290	8.483136	0.014615	4.313053
160.306199	5999.391813	8.488141	0.014610	4.313059
160.429395	5999.395051	8.493146	0.014586	4.313069
160.436484	5999.401816	8.498150	0.014585	4.313072
160.512948	5999.392006	8.503155	0.014571	4.313074
160.567112	5999.378663	8.508160	0.014561	4.313074
160.550954	5999.383933	8.513165	0.014564	4.313074
160.545632	5999.422744	8.518170	0.014565	4.313087
160.427436	5999.392710	8.523174	0.014587	4.313068
160.642984	5999.458125	8.528179	0.014546	4.313106
160.533701	5999.382084	8.533184	0.014567	4.313072
160.506382	5999.403511	8.538189	0.014572	4.313078
160.550482	5999.372086	8.543194	0.014564	4.313070
160.449743	5999.410947	8.548198	0.014583	4.313076
160.544786	5999.374215	8.553203	0.014565	4.313070
160.514422	5999.437645	8.558208	0.014570	4.313090
160.604812	5999.424877	8.563213	0.014553	4.313092
160.579362	5999.403631	8.568218	0.014558	4.313083
160.652656	5999.368762	8.573223	0.014544	4.313076
160.548383	5999.396426	8.578227	0.014564	4.313078
160.606336	5999.402496	8.583232	0.014553	4.313085
160.676720	5999.454634	8.588237	0.014540	4.313107
160.692306	5999.335526	8.593242	0.014537	4.313068
160.604223	5999.417650	8.598247	0.014554	4.313090
160.672747	5999.392065	8.603251	0.014541	4.313086
160.690975	5999.379003	8.608256	0.014537	4.313083
160.643225	5999.423150	8.613261	0.014546	4.313094
160.625621	5999.386452	8.618266	0.014550	4.313080
160.588968	5999.394238	8.623271	0.014556	4.313080
160.668184	5999.431634	8.628275	0.014542	4.313099
160.595862	5999.410235	8.633280	0.014555	4.313086
160.724017	5999.374741	8.638285	0.014531	4.313084
160.809821	5999.429118	8.643290	0.014515	4.313108
160.857605	5999.378530	8.648295	0.014506	4.313095
160.807105	5999.398448	8.653299	0.014516	4.313098
160.873115	5999.391778	8.658304	0.014503	4.313100
160.961688	5999.406049	8.663309	0.014487	4.313111
161.004791	5999.376674	8.668314	0.014478	4.313105
160.886334	5999.397241	8.673319	0.014501	4.313103
160.756575	5999.422048	8.678323	0.014525	4.313102
160.678485	5999.407389	8.683328	0.014540	4.313091
160.746478	5999.380079	8.688333	0.014527	4.313087
160.842618	5999.427665	8.693338	0.014509	4.313110
160.769792	5999.379722	8.698343	0.014523	4.313089
160.741939	5999.411371	8.703347	0.014528	4.313097
160.788497	5999.394129	8.708352	0.014519	4.313095
160.793175	5999.375674	8.713357	0.014518	4.313089
160.820267	5999.442523	8.718362	0.014513	4.313114
160.917579	5999.370386	8.723367	0.014495	4.313096
160.987025	5999.408938	8.728371	0.014482	4.313114
160.813263	5999.421035	8.733376	0.014514	4.313106
160.833035	5999.351583	8.738381	0.014511	4.313084
160.815384	5999.428855	8.743386	0.014514	4.313109
160.784028	5999.377617	8.748391	0.014520	4.313089
160.827063	5999.414427	8.753395	0.014512	4.313105
160.913257	5999.404389	8.758400	0.014496	4.313107
160.900769	5999.392337	8.763405	0.014498	4.313102
160.931496	5999.432681	8.768410	0.014492	4.313118
160.857352	5999.388693	8.773415	0.014506	4.313098
160.941322	5999.433351	8.778419	0.014490	4.313119
161.025596	5999.331817	8.783424	0.014475	4.313091
161.013115	5999.441996	8.788429	0.014477	4.313127
160.913349	5999.423669	8.793434	0.014496	4.313114
161.043320	5999.366652	8.798439	0.014471	4.313104
161.090743	5999.402530	8.803443	0.014462	4.313120
161.104463	5999.422592	8.808448	0.014460	4.313127
161.127549	5999.387359	8.813453	0.014455	4.313117
160.986915	5999.448480	8.818458	0.014482	4.313128
160.897197	5999.340711	8.823463	0.014499	4.313085
161.017506	5999.434630	8.828467	0.014476	4.313125
161.151790	5999.388644	8.833472	0.014451	4.313119
161.245909	5999.411847	8.838477	0.014433	4.313134
161.100100	5999.384919	8.843482	0.014461	4.313114
161.139103	5999.433615	8.848487	0.014453	4.313134
161.037173	5999.365200	8.853491	0.014472	4.313103
161.074440	5999.384855	8.858496	0.014465	4.313112
161.133212	5999.400861	8.863501	0.014454	4.313122
161.307744	5999.480508	8.868506	0.014422	4.313162
161.262100	5999.371645	8.873511	0.014430	4.313121
161.254634	5999.419184	8.878515	0.014432	4.313137
161.161296	5999.385705	8.883520	0.014449	4.313119
161.161009	5999.411500	8.888525	0.014449	4.313128
161.302725	5999.373125	8.893530	0.014423	4.313125
161.234260	5999.403292	8.898535	0.014435	4.313130
161.302268	5999.384251	8.903539	0.014423	4.313129
161.181704	5999.415375	8.908544	0.014445	4.313130
161.237925	5999.394242	8.913549	0.014435	4.313127
161.459115	5999.463979	8.918554	0.014393	4.313167
161.346422	5999.376710	8.923559	0.014414	4.313129
161.392427	5999.443220	8.928563	0.014406	4.313155
161.355537	5999.379369	8.933568	0.014413	4.313131
161.315642	5999.380491	8.938573	0.014420	4.313128
161.433237	5999.418008	8.943578	0.014398	4.313149
161.485803	5999.438091	8.948583	0.014388	4.313160
161.431444	5999.338431	8.953587	0.014398	4.313122
161.293967	5999.444834	8.958592	0.014424	4.313149
161.337574	5999.333556	8.963597	0.014416	4.313114
161.377442	5999.431698	8.968602	0.014408	4.313150
161.337896	5999.409769	8.973607	0.014416	4.313140
161.452621	5999.386319	8.978611	0.014394	4.313140
161.404084	5999.391115	8.983616	0.014403	4.313138
161.508618	5999.431406	8.988621	0.014384	4.313159
161.610362	5999.369356	8.993626	0.014365	4.313146
161.584134	5999.426395	8.998631	0.014370	4.313163
161.638216	5999.385497	9.003635	0.014360	4.313153
161.707493	5999.434197	9.008640	0.014347	4.313175
161.548996	5999.378714	9.013645	0.014376	4.313144
161.554674	5999.350856	9.018650	0.014375	4.313135
161.547272	5999.394705	9.023655	0.014377	4.313150
161.629722	5999.410278	9.028659	0.014361	4.313161
161.629819	5999.390957	9.033664	0.014361	4.313154
161.634530	5999.411095	9.038669	0.014360	4.313162
161.654743	5999.391177	9.043674	0.014356	4.313156
161.533897	5999.438904	9.048679	0.014379	4.313164
161.535896	5999.401716	9.053683	0.014379	4.313151
161.618593	5999.401613	9.058688	0.014363	4.313157
161.724093	5999.345198	9.063693	0.014343	4.313146
161.673653	5999.462524	9.068698	0.014353	4.313182
161.748129	5999.363988	9.073703	0.014339	4.313154
161.605275	5999.392494	9.078707	0.014366	4.313153
161.631232	5999.378709	9.083712	0.014361	4.313150
161.671686	5999.426179	9.088717	0.014353	4.313169
161.733597	5999.358803	9.093722	0.014342	4.313151
161.709579	5999.474194	9.098727	0.014346	4.313188
161.744237	5999.343676	9.103731	0.014340	4.313147
161.703209	5999.464518	9.108736	0.014347	4.313185
161.728905	5999.357962	9.113741	0.014343	4.313150
161.726957	5999.416277	9.118746	0.014343	4.313170
161.753405	5999.320590	9.123751	0.014338	4.313139
161.801988	5999.433426	9.128755	0.014329	4.313181
161.891343	5999.392389	9.133760	0.014312	4.313174
161.781261	5999.463563	9.138765	0.014333	4.313190
161.811125	5999.346012	9.143770	0.014327	4.313152
161.775169	5999.455666	9.148775	0.014334	4.313187
161.814616	5999.354461	9.153779	0.014326	4.313155
161.744204	5999.408018	9.158784	0.014340	4.313169
161.873785	5999.424610	9.163789	0.014315	4.313184
161.832377	5999.360798	9.168794	0.014323	4.313159
161.997698	5999.377151	9.173799	0.014292	4.313176
161.717598	5999.465138	9.178803	0.014345	4.313186
161.921606	5999.331735	9.183808	0.014306	4.313155
161.857725	5999.444564	9.188813	0.014318	4.313189
161.999312	5999.380484	9.193818	0.014292	4.313178
161.976574	5999.402776	9.198823	0.014296	4.313184
162.061538	5999.364510	9.203827	0.014280	4.313177
162.064495	5999.404321	9.208832	0.014280	4.313190
162.010150	5999.378182	9.213837	0.014290	4.313178
161.985753	5999.416451	9.218842	0.014294	4.313189
162.079202	5999.385573	9.223847	0.014277	4.313185
162.168868	5999.374799	9.228851	0.014260	4.313188
162.129298	5999.371256	9.233856	0.014267	4.313184
162.017497	5999.469449	9.238861	0.014288	4.313209
161.938458	5999.396167	9.243866	0.014303	4.313179
162.018944	5999.412158	9.248871	0.014288	4.313190
162.130355	5999.358164	9.253875	0.014267	4.313179
161.963027	5999.434145	9.258880	0.014299	4.313193
161.921258	5999.437503	9.263885	0.014306	4.313191
162.090024	5999.424633	9.268890	0.014275	4.313199
162.084570	5999.380756	9.273895	0.014276	4.313184
162.214365	5999.402818	9.278899	0.014251	4.313201
162.015417	5999.430370	9.283904	0.014289	4.313196
162.116166	5999.422757	9.288909	0.014270	4.313200
162.206586	5999.357597	9.293914	0.014253	4.313185
162.031934	5999.433295	9.298919	0.014286	4.313198
162.174955	5999.386373	9.303923	0.014259	4.313192
162.151630	5999.479560	9.308928	0.014263	4.313222
162.211336	5999.373131	9.313933	0.014252	4.313190
162.172529	5999.392403	9.318938	0.014259	4.313194
162.243557	5999.429705	9.323943	0.014246	4.313212
161.997278	5999.390107	9.328947	0.014292	4.313181
162.102931	5999.365827	9.333952	0.014272	4.313180
162.003976	5999.510923	9.338957	0.014291	4.313222
162.014502	5999.419536	9.343962	0.014289	4.313192
162.134284	5999.399608	9.348967	0.014266	4.313194
162.259304	5999.356509	9.353971	0.014243	4.313188
162.135839	5999.403873	9.358976	0.014266	4.313195
162.173195	5999.361013	9.363981	0.014259	4.313184
162.207126	5999.441119	9.368986	0.014253	4.313213
162.336129	5999.418314	9.373991	0.014229	4.313215
162.337715	5999.353641	9.378995	0.014228	4.313193
162.399857	5999.381801	9.384000	0.014217	4.313207
162.399833	5999.473716	9.389005	0.014217	4.313238
162.367744	5999.411599	9.394010	0.014223	4.313215
162.347985	5999.407524	9.399015	0.014226	4.313212
162.448534	5999.364109	9.404019	0.014208	4.313204
162.376552	5999.454764	9.409024	0.014221	4.313230
162.358448	5999.314311	9.414029	0.014224	4.313181
162.287153	5999.425959	9.419034	0.014238	4.313214
162.216018	5999.406143	9.424039	0.014251	4.313202
162.277008	5999.435467	9.429043	0.014240	4.313216
162.338367	5999.401295	9.434048	0.014228	4.313209
162.424018	5999.389536	9.439053	0.014212	4.313211
162.532270	5999.345404	9.444058	0.014192	4.313204
162.503345	5999.471031	9.449063	0.014197	4.313245
162.489989	5999.392068	9.454067	0.014200	4.313217
162.465339	5999.400980	9.459072	0.014204	4.313218
162.590187	5999.344131	9.464077	0.014181	4.313208
162.394228	5999.496046	9.469082	0.014218	4.313245
162.524169	5999.323228	9.474087	0.014193	4.313196
162.487953	5999.491763	9.479091	0.014200	4.313251
162.399871	5999.326652	9.484096	0.014217	4.313188
162.390648	5999.484858	9.489101	0.014218	4.313241
162.489556	5999.371020	9.494106	0.014200	4.313210
162.412298	5999.395702	9.499111	0.014214	4.313213
162.613390	5999.343799	9.504115	0.014177	4.313209
162.550851	5999.454507	9.509120	0.014188	4.313243
162.484504	5999.367498	9.514125	0.014201	4.313208
162.546935	5999.457177	9.519130	0.014189	4.313243
162.638117	5999.370715	9.524135	0.014172	4.313220
162.692705	5999.444598	9.529139	0.014162	4.313249
162.544958	5999.388664	9.534144	0.014189	4.313220
162.458766	5999.402376	9.539149	0.014206	4.313218
162.425732	5999.405716	9.544154	0.014212	4.313217
162.332417	5999.428293	9.549159	0.014229	4.313218
162.435555	5999.330102	9.554163	0.014210	4.313192
162.519055	5999.455746	9.559168	0.014194	4.313241
162.402415	5999.408830	9.564173	0.014216	4.313216
162.356935	5999.426762	9.569178	0.014225	4.313219
162.466282	5999.399860	9.574183	0.014204	4.313218
162.620957	5999.391823	9.579187	0.014175	4.313226
162.552831	5999.411808	9.584192	0.014188	4.313228
162.459896	5999.388349	9.589197	0.014205	4.313213
162.666752	5999.470331	9.594202	0.014167	4.313256
162.591667	5999.395287	9.599207	0.014181	4.313225
162.679133	5999.362003	9.604211	0.014164	4.313220
162.701636	5999.468436	9.609216	0.014160	4.313258
162.531437	5999.400727	9.614221	0.014192	4.313223
162.599747	5999.359564	9.619226	0.014179	4.313214
162.537676	5999.395725	9.624231	0.014191	4.313222
162.580766	5999.450910	9.629235	0.014183	4.313243
162.621529	5999.342989	9.634240	0.014175	4.313210
162.611067	5999.449989	9.639245	0.014177	4.313245
162.617365	5999.355822	9.644250	0.014176	4.313214
162.593388	5999.450068	9.649255	0.014180	4.313244
162.597468	5999.372915	9.654259	0.014180	4.313218
162.804304	5999.420895	9.659264	0.014141	4.313249
162.627333	5999.327970	9.664269	0.014174	4.313205
162.668303	5999.437832	9.669274	0.014166	4.313245
162.709919	5999.441861	9.674279	0.014158	4.313250
162.786920	5999.404366	9.679283	0.014144	4.313243
162.749930	5999.342371	9.684288	0.014151	4.313219
162.784359	5999.449028	9.689293	0.014144	4.313257
162.608827	5999.359474	9.694298	0.014177	4.313214
162.713030	5999.433847	9.699303	0.014158	4.313247
162.779501	5999.387560	9.704307	0.014145	4.313236
162.813086	5999.385022	9.709312	0.014139	4.313238
162.883170	5999.398629	9.714317	0.014126	4.313248
162.889701	5999.409190	9.719322	0.014125	4.313252
162.788289	5999.411429	9.724327	0.014144	4.313245
162.745031	5999.450028	9.729331	0.014152	4.313255
162.820426	5999.319125	9.734336	0.014138	4.313216
162.833123	5999.439590	9.739341	0.014135	4.313258
163.050501	5999.428346	9.744346	0.014095	4.313270
163.013097	5999.404121	9.749351	0.014102	4.313259
163.004722	5999.416930	9.754355	0.014103	4.313262
162.914846	5999.400173	9.759360	0.014120	4.313250
163.010899	5999.395397	9.764365	0.014102	4.313256
163.015869	5999.391584	9.769370	0.014101	4.313255
163.014670	5999.389081	9.774375	0.014101	4.313254
162.884200	5999.420469	9.779379	0.014126	4.313255
162.969151	5999.412536	9.784384	0.014110	4.313258
162.857395	5999.402265	9.789389	0.014131	4.313247
162.944926	5999.399299	9.794394	0.014114	4.313252
163.005911	5999.372559	9.799399	0.014103	4.313248
163.075119	5999.390029	9.804403	0.014090	4.313258
163.069310	5999.438138	9.809408	0.014091	4.313274
162.942371	5999.414548	9.814413	0.014115	4.313257
162.931911	5999.381843	9.819418	0.014117	4.313245
163.077508	5999.392279	9.824423	0.014089	4.313259
163.055140	5999.399787	9.829427	0.014094	4.313260
163.141317	5999.442146	9.834432	0.014078	4.313281
163.038317	5999.387735	9.839437	0.014097	4.313255
163.061341	5999.359867	9.844442	0.014093	4.313247
162.880580	5999.401017	9.849447	0.014126	4.313248
163.092126	5999.455351	9.854451	0.014087	4.313282
163.125434	5999.352688	9.859456	0.014081	4.313249
163.202830	5999.419890	9.864461	0.014066	4.313278
163.069599	5999.371900	9.869466	0.014091	4.313252
162.982766	5999.378394	9.874471	0.014107	4.313248
163.049995	5999.456947	9.879475	0.014095	4.313279
163.198074	5999.360238	9.884480	0.014067	4.313257
163.195118	5999.432557	9.889485	0.014067	4.313282
163.244194	5999.368825	9.894490	0.014058	4.313263
163.183161	5999.402008	9.899495	0.014070	4.313270
163.187733	5999.434126	9.904499	0.014069	4.313282
163.240602	5999.353043	9.909504	0.014059	4.313258
163.215398	5999.445714	9.914509	0.014064	4.313287
163.151005	5999.390456	9.919514	0.014076	4.313264
163.238023	5999.366459	9.924519	0.014059	4.313262
163.298685	5999.417914	9.929523	0.014048	4.313284
163.306376	5999.401574	9.934528	0.014047	4.313279
163.264935	5999.422325	9.939533	0.014054	4.313283
163.322709	5999.371450	9.944538	0.014043	4.313270
163.273001	5999.456458	9.949543	0.014053	4.313295
163.301368	5999.344733	9.954547	0.014047	4.313259
163.260093	5999.466552	9.959552	0.014055	4.313298
163.477638	5999.363362	9.964557	0.014014	4.313278
163.297888	5999.435547	9.969562	0.014048	4.313290
163.489339	5999.391208	9.974567	0.014012	4.313289
163.410695	5999.387690	9.979571	0.014027	4.313282
163.510724	5999.428947	9.984576	0.014008	4.313303
163.467700	5999.417863	9.989581	0.014016	4.313296
163.475641	5999.364705	9.994586	0.014015	4.313279
163.377383	5999.424178	9.999591	0.014033	4.313292
163.344692	5999.443989	10.004595	0.014039	4.313296
163.340978	5997.455920	10.009600	0.014041	4.312621
163.362310	5991.607017	10.014605	0.014038	4.310635
163.287835	5985.571848	10.019610	0.014053	4.308578
163.373533	5979.577989	10.024615	0.014039	4.306545
163.300552	5973.597803	10.029619	0.014054	4.304505
163.310345	5967.549658	10.034624	0.014054	4.302447
163.174768	5961.604153	10.039629	0.014081	4.300412
163.212578	5955.522824	10.044634	0.014075	4.298342
163.207576	5949.604617	10.049639	0.014077	4.296324
163.181702	5943.539924	10.054643	0.014084	4.294254
163.115426	5937.531632	10.059648	0.014098	4.292198
163.183904	5931.565036	10.064653	0.014086	4.290166
163.044530	5925.507811	10.069658	0.014114	4.288087
163.078186	5919.555294	10.074663	0.014109	4.286055
162.905591	5913.524793	10.079667	0.014143	4.283981
162.923138	5907.485641	10.084672	0.014141	4.281916
162.861285	5901.529391	10.089677	0.014154	4.279873
162.787757	5895.490103	10.094682	0.014170	4.277800
162.784280	5889.495183	10.099687	0.014172	4.275746
162.580829	5883.516176	10.104691	0.014211	4.273681
162.757418	5877.455477	10.109696	0.014180	4.271616
162.682707	5871.475511	10.114701	0.014195	4.269559
162.657374	5865.474157	10.119706	0.014201	4.267497
162.740539	5859.469541	10.124711	0.014187	4.265442
162.792146	5853.438271	10.129715	0.014179	4.263373
162.683117	5847.464643	10.134720	0.014201	4.261312
162.400996	5841.423432	10.139725	0.014256	4.259213
162.409136	5835.431275	10.144730	0.014255	4.257152
162.485628	5829.454396	10.149735	0.014243	4.255100
162.382509	5823.415127	10.154739	0.014263	4.253013
162.339371	5817.436495	10.159744	0.014273	4.250949
162.292829	5811.411729	10.164749	0.014283	4.248869
162.386754	5805.389246	10.169754	0.014267	4.246798
162.513988	5799.396783	10.174759	0.014245	4.244740
162.362362	5793.413669	10.179763	0.014275	4.242663
162.388127	5787.392173	10.184768	0.014271	4.240585
162.228391	5781.378858	10.189773	0.014303	4.238495
162.218139	5775.415388	10.194778	0.014306	4.236432
162.073459	5769.369603	10.199783	0.014335	4.234330
162.081849	5763.364665	10.204787	0.014335	4.232252
161.926153	5757.377838	10.209792	0.014365	4.230167
162.047397	5751.348718	10.214797	0.014344	4.228088
161.896457	5745.368635	10.219802	0.014374	4.226003
162.056533	5739.330582	10.224807	0.014345	4.223922
161.944174	5733.348912	10.229811	0.014368	4.221838
161.832739	5727.322386	10.234816	0.014390	4.219737
161.923622	5721.320064	10.239821	0.014375	4.217660
161.909835	5715.345471	10.244826	0.014379	4.215583
161.833291	5709.302346	10.249831	0.014395	4.213476
161.757519	5703.333895	10.254835	0.014410	4.211394
161.704780	5697.306848	10.259840	0.014422	4.209293
161.750272	5691.298826	10.264845	0.014415	4.207204
161.642559	5685.303381	10.269850	0.014437	4.205108
161.768156	5679.280053	10.274855	0.014414	4.203018
161.593790	5673.282091	10.279859	0.014449	4.200913
161.609371	5667.274731	10.284864	0.014447	4.198819
161.616437	5661.278507	10.289869	0.014447	4.196726
161.630788	5655.238969	10.294874	0.014446	4.194618
161.461450	5649.252101	10.299879	0.014479	4.192513
161.572384	5643.249018	10.304883	0.014460	4.190424
161.416071	5637.261783	10.309888	0.014491	4.188317
161.501339	5631.264118	10.314893	0.014476	4.186225
161.475130	5625.207710	10.319898	0.014483	4.184103
161.538997	5619.223463	10.324903	0.014472	4.182012
161.457731	5613.221935	10.329907	0.014489	4.179902
161.468743	5607.225176	10.334912	0.014488	4.177801
161.312682	5601.214391	10.339917	0.014519	4.175680
161.232341	5595.191619	10.344922	0.014536	4.173560
161.131635	5589.210264	10.349927	0.014556	4.171451
161.232993	5583.175298	10.354931	0.014539	4.169339
160.967594	5577.208448	10.359936	0.014590	4.167221
161.293041	5571.164073	10.364941	0.014530	4.165121
161.060428	5565.160581	10.369946	0.014575	4.162990
161.186575	5559.173888	10.374951	0.014553	4.160892
161.188447	5553.163962	10.379955	0.014554	4.158775
161.326666	5547.189397	10.384960	0.014530	4.156681
160.965681	5541.154554	10.389965	0.014599	4.154525
161.111661	5535.135657	10.394970	0.014573	4.152413
161.099089	5529.122676	10.399975	0.014577	4.150290
161.004273	5523.159560	10.404979	0.014596	4.148176
160.867386	5517.153340	10.409984	0.014624	4.146043
160.870722	5511.137228	10.414989	0.014624	4.143917
160.727408	5505.114899	10.419994	0.014653	4.141776
160.651429	5499.126425	10.424999	0.014669	4.139650
160.519300	5493.114063	10.430003	0.014695	4.137511
160.720197	5487.092207	10.435008	0.014659	4.135394
160.655725	5481.100745	10.440013	0.014672	4.133266
160.596158	5475.115689	10.445018	0.014685	4.131139
160.438929	5469.074030	10.450023	0.014716	4.128983
160.438157	5463.107433	10.455027	0.014718	4.126865
160.445878	5457.068151	10.460032	0.014718	4.124720
160.473542	5451.080188	10.465037	0.014714	4.122595
160.363268	5445.040571	10.470042	0.014736	4.120439
160.295775	5439.053239	10.475047	0.014750	4.118304
160.343724	5433.065606	10.480051	0.014743	4.116177
160.360238	5427.036479	10.485056	0.014741	4.114031
160.239919	5421.033751	10.490061	0.014765	4.111883
160.148085	5415.042611	10.495066	0.014784	4.109740
160.042505	5409.060395	10.500071	0.014805	4.107598
160.129547	5403.004173	10.505075	0.014790	4.105444
160.109585	5397.000868	10.510080	0.014796	4.103299
160.171586	5391.022187	10.515085	0.014785	4.101169
160.047016	5384.994905	10.520090	0.014810	4.099005
160.071505	5379.019696	10.525095	0.014807	4.096870
159.922564	5372.977356	10.530099	0.014837	4.094696
159.907397	5367.024497	10.535104	0.014841	4.092564
159.801531	5360.959578	10.540109	0.014862	4.090384
159.936638	5354.964621	10.545114	0.014838	4.088247
159.928931	5348.978529	10.550119	0.014841	4.086100
159.879594	5342.953809	10.555123	0.014852	4.083935
159.645614	5336.976481	10.560128	0.014897	4.081770
159.817837	5330.943777	10.565133	0.014867	4.079618
159.549451	5324.966063	10.570138	0.014918	4.077449
159.667613	5318.927809	10.575143	0.014898	4.075288
159.553270	5312.928064	10.580147	0.014921	4.073121
159.630947	5306.929782	10.585152	0.014908	4.070969
159.479712	5300.936317	10.590157	0.014937	4.068798
159.603023	5294.931238	10.595162	0.014916	4.066645
159.591213	5288.912015	10.600167	0.014920	4.064475
159.719489	5282.912954	10.605171	0.014897	4.062322
159.531138	5276.913294	10.610176	0.014934	4.060142
159.509438	5270.916393	10.615181	0.014939	4.057975
159.517944	5264.863859	10.620186	0.014939	4.055790
159.508198	5258.885318	10.625191	0.014943	4.053628
159.389811	5252.886839	10.630195	0.014966	4.051449
159.335887	5246.871497	10.635200	0.014978	4.049269
159.174271	5240.874094	10.640205	0.015010	4.047084
159.200559	5234.860442	10.645210	0.015006	4.044909
159.092313	5228.864952	10.650215	0.015028	4.042727
159.085413	5222.843124	10.655219	0.015031	4.040543
158.980810	5216.830111	10.660224	0.015052	4.038353
159.091215	5210.839074	10.665229	0.015033	4.036188
159.036112	5204.810746	10.670234	0.015045	4.033994
159.049150	5198.844547	10.675239	0.015044	4.031827
158.966031	5192.804423	10.680243	0.015061	4.029624
158.972918	5186.835838	10.685248	0.015061	4.027454
158.886466	5180.794536	10.690253	0.015079	4.025248
158.931881	5174.825143	10.695258	0.015072	4.023078
158.721893	5168.781712	10.700263	0.015112	4.020859
158.757400	5162.795473	10.705267	0.015107	4.018679
158.765647	5156.790620	10.710272	0.015107	4.016490
158.590794	5150.802082	10.715277	0.015141	4.014290
158.415270	5144.779453	10.720282	0.015176	4.012075
158.608624	5138.770064	10.725287	0.015141	4.009897
158.496139	5132.785412	10.730291	0.015164	4.007699
158.491555	5126.757363	10.735296	0.015166	4.005494
158.366933	5120.735319	10.740301	0.015191	4.003280
158.397135	5114.750076	10.745306	0.015187	4.001091
158.420958	5108.713370	10.750311	0.015184	3.998881
158.412055	5102.751575	10.755315	0.015187	3.996695
158.288275	5096.717199	10.760320	0.015212	3.994472
158.364337	5090.741084	10.765325	0.015199	3.992285
158.282372	5084.698465	10.770330	0.015216	3.990060
158.235126	5078.753843	10.775335	0.015226	3.987872
158.081754	5072.690730	10.780339	0.015256	3.985630
158.153290	5066.691532	10.785344	0.015244	3.983430
158.033198	5060.690158	10.790349	0.015268	3.981211
157.940060	5054.696810	10.795354	0.015287	3.978996
157.761570	5048.671187	10.800359	0.015322	3.976761
157.988900	5042.677944	10.805363	0.015281	3.974572
157.871688	5036.680101	10.810368	0.015305	3.972349
157.888470	5030.645333	10.815373	0.015303	3.970124
157.777481	5024.659574	10.820378	0.015325	3.967904
157.803657	5018.647077	10.825383	0.015322	3.965686
157.683566	5012.649154	10.830387	0.015346	3.963458
157.872034	5006.613974	10.835392	0.015312	3.961243
157.780675	5000.632005	10.840397	0.015331	3.959021
157.789699	4994.658966	10.845402	0.015330	3.956810
157.684776	4988.598541	10.850407	0.015352	3.954556
157.642112	4982.624407	10.855411	0.015361	3.952338
157.471607	4976.605975	10.860416	0.015395	3.950091
157.535860	4970.649215	10.865421	0.015384	3.947886
157.597929	4964.589521	10.870426	0.015374	3.945641
157.377081	4958.624609	10.875431	0.015417	3.943406
157.349763	4952.571404	10.880435	0.015423	3.941153
157.222857	4946.590898	10.885440	0.015449	3.938917
157.239617	4940.567588	10.890445	0.015447	3.936677
157.295901	4934.591842	10.895450	0.015438	3.934457
157.151590	4928.547906	10.900455	0.015467	3.932193
157.239775	4922.560391	10.905459	0.015451	3.929969
157.095824	4916.568550	10.910464	0.015480	3.927721
157.234872	4910.527043	10.915469	0.015455	3.925479
157.095913	4904.554310	10.920474	0.015483	3.923236
157.129342	4898.532589	10.925479	0.015478	3.920989
157.000465	4892.528459	10.930483	0.015504	3.918732
157.049953	4886.561502	10.935488	0.015496	3.916505
156.692576	4880.506185	10.940493	0.015565	3.914206
156.791161	4874.498427	10.945498	0.015548	3.911965
156.649573	4868.513080	10.950503	0.015576	3.909710
156.959479	4862.528403	10.955507	0.015519	3.907494
156.687766	4856.480844	10.960512	0.015571	3.905200
156.804660	4850.492342	10.965517	0.015551	3.902963
156.685942	4844.478831	10.970522	0.015575	3.900694
156.835453	4838.502542	10.975527	0.015548	3.898462
156.789567	4832.453433	10.980531	0.015558	3.896183
156.716239	4826.495027	10.985536	0.015573	3.893934
156.615718	4820.457175	10.990541	0.015594	3.891652
156.620621	4814.445291	10.995546	0.015594	3.889388
156.487079	4808.459884	11.000551	0.015621	3.887120
156.499580	4802.452345	11.005555	0.015620	3.884856
156.330051	4796.443101	11.010560	0.015653	3.882573
156.405269	4790.427298	11.015565	0.015641	3.880308
156.341296	4784.446508	11.020570	0.015654	3.878043
156.265124	4778.426814	11.025575	0.015670	3.875760
156.230672	4772.406269	11.030579	0.015678	3.873480
156.280291	4766.413236	11.035584	0.015670	3.871217
156.172313	4760.421909	11.040589	0.015692	3.868938
156.386746	4754.386424	11.045594	0.015653	3.866671
156.139740	4748.419828	11.050599	0.015701	3.864386
156.196480	4742.379847	11.055603	0.015692	3.862100
156.140704	4736.358719	11.060608	0.015704	3.859809
156.089203	4730.413280	11.065613	0.015715	3.857547
156.019809	4724.354201	11.070618	0.015729	3.855238
156.056372	4718.365460	11.075623	0.015724	3.852964
155.966741	4712.354712	11.080627	0.015742	3.850668
156.141246	4706.311195	11.085632	0.015711	3.848384
156.019482	4700.325396	11.090637	0.015735	3.846093
155.964794	4694.361881	11.095642	0.015747	3.843814
155.801304	4688.331404	11.100647	0.015779	3.841499
155.965873	4682.351180	11.105651	0.015750	3.839233
155.757796	4676.327577	11.110656	0.015790	3.836913
155.739992	4670.318645	11.115661	0.015795	3.834615
155.576872	4664.314189	11.120666	0.015827	3.832305
155.734724	4658.301651	11.125671	0.015799	3.830020
155.718232	4652.328499	11.130675	0.015804	3.827732
155.753042	4646.289158	11.135680	0.015799	3.825422
155.597255	4640.287716	11.140685	0.015830	3.823107
155.785231	4634.285200	11.145690	0.015796	3.820824
155.589247	4628.297804	11.150695	0.015834	3.818508
155.590986	4622.269849	11.155699	0.015835	3.816194
155.513512	4616.270945	11.160704	0.015851	3.813882
155.553189	4610.237619	11.165709	0.015845	3.811567
155.392514	4604.275701	11.170714	0.015877	3.809258
155.527216	4598.247902	11.175719	0.015853	3.806951
155.261127	4592.243420	11.180723	0.015905	3.804614
155.338339	4586.228352	11.185728	0.015892	3.802303
155.169045	4580.217754	11.190733	0.015925	3.799970
155.387478	4574.258849	11.195738	0.015885	3.797692
155.115718	4568.236799	11.200743	0.015938	3.795341
155.175211	4562.238342	11.205747	0.015928	3.793030
155.083084	4556.187803	11.210752	0.015947	3.790682
155.038457	4550.229226	11.215757	0.015957	3.788374
154.914076	4544.187028	11.220762	0.015982	3.786023
155.087156	4538.190092	11.225767	0.015951	3.783718
154.815896	4532.193069	11.230771	0.016003	3.781368
154.844501	4526.216361	11.235776	0.015999	3.779054
154.879279	4520.166123	11.240781	0.015994	3.776710
154.826099	4514.177926	11.245786	0.016005	3.774380
154.559902	4508.200449	11.250791	0.016057	3.772033
154.668471	4502.192684	11.255795	0.016038	3.769708
154.715732	4496.134198	11.260800	0.016031	3.767357
154.768285	4490.139897	11.265805	0.016022	3.765029
154.657976	4484.141467	11.270810	0.016044	3.762683
154.687335	4478.125194	11.275815	0.016040	3.760342
154.556432	4472.164342	11.280819	0.016066	3.758005
154.582575	4466.102764	11.285824	0.016063	3.755643
154.435996	4460.151832	11.290829	0.016092	3.753305
154.408988	4454.129672	11.295834	0.016099	3.750950
154.310735	4448.106989	11.300839	0.016119	3.748587
154.327076	4442.125352	11.305843	0.016117	3.746249
154.154019	4436.099758	11.310848	0.016151	3.743874
154.388505	4430.082278	11.315853	0.016108	3.741541
154.077287	4424.100232	11.320858	0.016168	3.739166
154.251310	4418.067338	11.325863	0.016137	3.736818
154.073501	4412.106894	11.330867	0.016172	3.734462
154.118162	4406.049196	11.335872	0.016165	3.732088
154.057084	4400.091362	11.340877	0.016178	3.729741
154.117447	4394.073829	11.345882	0.016168	3.727382
154.063957	4388.034335	11.350887	0.016180	3.725001
153.966663	4382.073335	11.355891	0.016199	3.722645
153.779519	4376.025752	11.360896	0.016236	3.720245
153.868447	4370.041573	11.365901	0.016221	3.717896
153.709595	4364.028656	11.370906	0.016252	3.715509
153.700636	4358.050183	11.375911	0.016255	3.713149
153.447491	4352.017816	11.380915	0.016304	3.710741
153.601267	4346.045710	11.385920	0.016277	3.708397
153.619531	4339.975434	11.390925	0.016275	3.705999
153.649298	4334.004746	11.395930	0.016271	3.703640
153.608866	4327.989618	11.400935	0.016280	3.701255
153.539286	4322.032352	11.405939	0.016294	3.698888
153.532826	4315.967453	11.410944	0.016297	3.696484
153.601040	4310.018735	11.415949	0.016286	3.694131
153.497703	4303.952722	11.420954	0.016307	3.691713
153.388031	4298.008672	11.425959	0.016329	3.689341
153.265904	4291.963321	11.430963	0.016353	3.686927
153.397987	4285.969554	11.435968	0.016330	3.684557
153.267791	4279.941267	11.440973	0.016356	3.682145
152.958126	4273.989128	11.445978	0.016415	3.679743
153.037217	4267.918808	11.450983	0.016402	3.677332
153.101651	4261.943888	11.455987	0.016391	3.674957
152.955270	4255.916162	11.460992	0.016420	3.672537
153.136258	4249.959543	11.465997	0.016388	3.670178
153.063117	4243.908314	11.471002	0.016403	3.667753
153.100479	4237.939494	11.476007	0.016398	3.665371
152.952522	4231.889874	11.481011	0.016427	3.662936
152.900125	4225.928756	11.486016	0.016438	3.660544
152.889643	4219.878095	11.491021	0.016442	3.658120
152.937423	4213.880193	11.496026	0.016434	3.655721
152.780229	4207.910610	11.501031	0.016465	3.653310
152.726710	4201.898679	11.506035	0.016477	3.650892
152.523841	4195.887600	11.511040	0.016516	3.648457
152.788433	4189.844516	11.516045	0.016468	3.646056
152.461363	4183.882383	11.521050	0.016531	3.643624
152.526949	4177.856295	11.526055	0.016520	3.641206
152.504416	4171.871084	11.531059	0.016526	3.638794
152.490799	4165.856547	11.536064	0.016530	3.636369
152.465230	4159.832116	11.541069	0.016536	3.633937
152.401413	4153.847238	11.546074	0.016550	3.631516
152.400081	4147.831514	11.551079	0.016551	3.629087
152.433024	4141.833266	11.556083	0.016547	3.626667
152.337702	4135.840115	11.561088	0.016566	3.624234
152.377777	4129.810216	11.566093	0.016560	3.621799
152.198469	4123.827899	11.571098	0.016595	3.619358
152.233536	4117.800493	11.576103	0.016590	3.616920
152.153844	4111.808749	11.581107	0.016606	3.614483
152.066715	4105.807647	11.586112	0.016624	3.612039
151.963130	4099.806510	11.591117	0.016645	3.609592
151.813480	4093.773952	11.596122	0.016675	3.607126
151.759076	4087.718269	11.601127	0.016687	3.604658
151.803560	4081.715958	11.606131	0.016680	3.602222
151.721329	4075.726479	11.611136	0.016697	3.599775
151.698786	4069.709314	11.616141	0.016702	3.597322
151.608062	4063.708858	11.621146	0.016721	3.594866
151.631741	4057.697707	11.626151	0.016718	3.592417
151.656142	4051.704981	11.631155	0.016715	3.589974
151.657946	4045.697068	11.636160	0.016716	3.587520
151.607911	4039.689384	11.641165	0.016727	3.585059
151.572372	4033.680495	11.646170	0.016735	3.582598
151.419593	4027.694537	11.651175	0.016765	3.580132
151.366918	4021.682498	11.656179	0.016776	3.577664
151.218484	4015.679410	11.661184	0.016806	3.575187
151.206535	4009.657357	11.666189	0.016810	3.572716
151.219721	4003.667799	11.671194	0.016809	3.570260
151.254131	3997.650892	11.676199	0.016804	3.567792
151.118915	3991.629204	11.681203	0.016830	3.565303
151.094938	3985.634629	11.686208	0.016836	3.562835
150.953503	3979.661002	11.691213	0.016864	3.560361
151.044400	3973.613951	11.696218	0.016849	3.557880
150.816386	3967.627082	11.701223	0.016893	3.555388
150.900257	3961.619070	11.706227	0.016879	3.552920
150.862523	3955.622605	11.711232	0.016887	3.550441
150.895194	3949.588923	11.716237	0.016883	3.547952
150.984017	3943.586028	11.721242	0.016868	3.545481
150.887150	3937.606603	11.726247	0.016887	3.542998
150.725023	3931.602076	11.731251	0.016919	3.540495
150.680010	3925.590958	11.736256	0.016929	3.538000
150.563733	3919.574523	11.741261	0.016952	3.535494
150.768354	3913.562426	11.746266	0.016916	3.533023
150.623076	3907.581084	11.751271	0.016944	3.530525
150.596161	3901.546826	11.756275	0.016951	3.528016
150.491142	3895.554308	11.761280	0.016972	3.525513
150.520053	3889.542221	11.766285	0.016968	3.523016
150.394869	3883.547197	11.771290	0.016993	3.520507
150.484906	3877.531001	11.776295	0.016978	3.518011
150.399192	3871.526514	11.781299	0.016995	3.515499
150.404324	3865.528153	11.786304	0.016996	3.512998
150.257398	3859.539780	11.791309	0.017025	3.510482
150.375391	3853.516674	11.796314	0.017004	3.507979
150.220762	3847.503951	11.801319	0.017035	3.505448
150.240105	3841.518206	11.806323	0.017032	3.502947
149.997562	3835.514069	11.811328	0.017079	3.500406
150.053003	3829.502648	11.816333	0.017071	3.497894
149.856266	3823.499496	11.821338	0.017109	3.495355
149.815865	3817.485404	11.826343	0.017118	3.492828
149.670764	3811.492802	11.831347	0.017147	3.490295
149.785825	3805.460344	11.836352	0.017127	3.487774
149.666110	3799.487481	11.841357	0.017151	3.485249
149.807238	3793.456622	11.846362	0.017126	3.482728
149.541423	3787.485329	11.851367	0.017177	3.480183
149.576125	3781.443835	11.856371	0.017172	3.477642
149.735027	3775.424161	11.861376	0.017144	3.475122
149.659595	3769.439013	11.866381	0.017159	3.472588
149.633333	3763.457500	11.871386	0.017166	3.470059
149.551081	3757.434997	11.876391	0.017183	3.467504
149.343537	3751.430334	11.881395	0.017223	3.464941
149.308936	3745.409778	11.886400	0.017231	3.462389
149.165088	3739.432958	11.891405	0.017259	3.459841
149.291021	3733.411526	11.896410	0.017237	3.457304
149.282286	3727.396522	11.901415	0.017240	3.454752
149.055467	3721.415215	11.906419	0.017285	3.452187
149.145114	3715.378683	11.911424	0.017269	3.449633
149.308739	3709.390275	11.916429	0.017240	3.447106
149.182177	3703.360625	11.921434	0.017265	3.444526
149.192837	3697.394133	11.926439	0.017265	3.441988
148.998377	3691.374519	11.931443	0.017303	3.439400
149.032240	3685.373263	11.936448	0.017298	3.436846
148.864897	3679.351745	11.941453	0.017331	3.434257
148.915603	3673.372400	11.946458	0.017323	3.431710
148.842047	3667.330701	11.951463	0.017338	3.429119
148.858772	3661.373234	11.956467	0.017336	3.426574
148.774504	3655.331916	11.961472	0.017354	3.423978
148.672007	3649.343214	11.966477	0.017374	3.421401
148.627290	3643.325019	11.971482	0.017384	3.418817
148.689249	3637.333767	11.976487	0.017374	3.416254
148.672855	3631.300889	11.981491	0.017379	3.413663
148.565979	3625.350504	11.986496	0.017400	3.411094
148.282023	3619.321241	11.991501	0.017455	3.408468
148.329995	3613.296100	11.996506	0.017447	3.405882
148.419851	3607.259629	12.001511	0.017432	3.403293
148.339154	3601.323941	12.006515	0.017449	3.400726
148.227944	3595.274538	12.011520	0.017471	3.398104
148.269371	3589.313591	12.016525	0.017465	3.395537
148.199881	3583.254059	12.021530	0.017479	3.392911
148.202660	3577.294823	12.026535	0.017480	3.390336
148.038808	3571.258449	12.031539	0.017512	3.387705
148.020718	3565.265135	12.036544	0.017517	3.385109
147.938856	3559.262372	12.041549	0.017534	3.382499
147.846300	3553.276603	12.046554	0.017553	3.379892
147.677982	3547.250308	12.051559	0.017586	3.377257
147.693466	3541.253339	12.056563	0.017585	3.374655
147.602131	3535.228123	12.061568	0.017603	3.372026
147.753212	3529.229387	12.066573	0.017576	3.369435
147.737102	3523.208454	12.071578	0.017581	3.366813
147.674289	3517.210922	12.076583	0.017594	3.364193
147.588146	3511.236032	12.081587	0.017612	3.361578
147.654683	3505.189048	12.086592	0.017601	3.358948
147.602259	3499.218458	12.091597	0.017612	3.356335
147.673546	3493.181684	12.096602	0.017600	3.353706
147.678698	3487.202994	12.101607	0.017601	3.351092
147.446095	3481.186826	12.106611	0.017646	3.348431
147.359739	3475.176828	12.111616	0.017664	3.345788
147.207281	3469.188642	12.116621	0.017694	3.343144
147.148499	3463.184815	12.121626	0.017706	3.340504
147.150380	3457.158161	12.126631	0.017707	3.337858
147.047955	3451.179638	12.131635	0.017728	3.335219
146.998830	3445.156932	12.136640	0.017739	3.332564
147.080990	3439.140614	12.141645	0.017725	3.329927
147.091390	3433.144145	12.146650	0.017724	3.327287
146.993265	3427.122643	12.151655	0.017744	3.324621
147.044554	3421.149753	12.156659	0.017736	3.321993
147.066070	3415.107910	12.161664	0.017734	3.319328
146.839724	3409.152455	12.166669	0.017778	3.316669
146.785581	3403.095685	12.171674	0.017789	3.313984
146.794479	3397.149553	12.176679	0.017789	3.311353
146.791717	3391.070491	12.181683	0.017791	3.308661
146.709738	3385.116518	12.186688	0.017808	3.306011
146.704150	3379.090995	12.191693	0.017810	3.303338
146.658159	3373.111953	12.196698	0.017821	3.300677
146.544871	3367.110355	12.201703	0.017843	3.297997
146.530535	3361.074583	12.206707	0.017847	3.295311
146.468851	3355.078125	12.211712	0.017861	3.292634
146.414712	3349.078143	12.216717	0.017872	3.289955
146.427474	3343.050188	12.221722	0.017871	3.287269
146.239355	3337.071303	12.226727	0.017908	3.284578
146.312242	3331.058599	12.231731	0.017896	3.281903
146.228830	3325.057944	12.236736	0.017913	3.279210
146.259366	3319.046767	12.241741	0.017909	3.276526
146.211944	3313.038865	12.246746	0.017919	3.273831
146.269045	3307.020261	12.251751	0.017910	3.271142
146.160980	3301.045031	12.256755	0.017932	3.268449
146.166150	3295.023201	12.261760	0.017932	3.265747
146.089465	3289.042081	12.266765	0.017948	3.263052
146.114166	3282.999671	12.271770	0.017945	3.260339
145.960562	3277.038590	12.276775	0.017975	3.257638
146.007203	3270.967402	12.281779	0.017968	3.254910
145.877202	3265.052622	12.286784	0.017994	3.252229
145.677191	3258.978638	12.291789	0.018033	3.249464
145.579508	3253.006640	12.296794	0.018053	3.246756
145.409173	3246.977472	12.301799	0.018086	3.244010
145.318349	3241.004008	12.306803	0.018105	3.241298
145.330230	3234.949754	12.311808	0.018104	3.238560
145.212853	3228.987794	12.316813	0.018127	3.235845
145.266614	3222.964146	12.321818	0.018119	3.233121
145.295730	3216.949830	12.326823	0.018115	3.230397
145.292236	3210.937518	12.331827	0.018117	3.227667
145.256988	3204.953796	12.336832	0.018125	3.224943
145.180556	3198.958798	12.341837	0.018141	3.222206
145.301416	3192.930282	12.346842	0.018120	3.219478
145.179390	3186.950344	12.351847	0.018144	3.216738
145.186348	3180.907806	12.356851	0.018144	3.213984
145.138361	3174.953897	12.361856	0.018155	3.211260
145.053450	3168.907020	12.366861	0.018172	3.208487
144.996849	3162.905760	12.371866	0.018184	3.205737
144.869079	3156.940354	12.376871	0.018210	3.202991
144.774050	3150.892354	12.381875	0.018229	3.200209
144.663571	3144.914708	12.386880	0.018251	3.197454
144.537471	3138.870574	12.391885	0.018276	3.194665
144.591057	3132.900375	12.396890	0.018268	3.191931
144.578616	3126.866669	12.401895	0.018272	3.189157
144.591265	3120.879843	12.406899	0.018271	3.186405
144.439727	3114.879757	12.411904	0.018301	3.183623
144.500624	3108.871134	12.416909	0.018291	3.180863
144.452129	3102.848507	12.421914	0.018301	3.178079
144.534089	3096.840840	12.426919	0.018288	3.175318
144.453118	3090.871919	12.431923	0.018304	3.172550
144.481199	3084.853776	12.436928	0.018300	3.169771
144.326317	3078.841213	12.441933	0.018331	3.166968
144.316730	3072.841196	12.446938	0.018334	3.164188
144.142144	3066.851825	12.451943	0.018368	3.161388
144.124843	3060.831704	12.456947	0.018373	3.158593
144.081534	3054.804972	12.461952	0.018383	3.155788
144.060049	3048.823619	12.466957	0.018388	3.153005
143.966161	3042.817587	12.471962	0.018407	3.150199
143.943959	3036.797485	12.476967	0.018413	3.147393
143.708929	3030.798394	12.481971	0.018459	3.144565
143.839100	3024.801031	12.486976	0.018436	3.141785
143.872227	3018.791673	12.491981	0.018431	3.138984
143.637995	3012.788662	12.496986	0.018476	3.136147
143.627400	3006.804166	12.501991	0.018480	3.133347
143.640400	3000.758156	12.506995	0.018479	3.130518
143.633182	2994.756129	12.512000	0.018482	3.127705
143.404547	2988.771510	12.517005	0.018526	3.124867
143.418318	2982.777570	12.522010	0.018525	3.122055
143.364686	2976.756891	12.527015	0.018537	3.119219
143.158168	2970.758506	12.532019	0.018577	3.116370
143.345523	2964.739449	12.537024	0.018543	3.113563
143.280162	2958.722112	12.542029	0.018557	3.110719
143.303947	2952.743792	12.547034	0.018554	3.107903
143.265640	2946.713676	12.552039	0.018563	3.105052
143.159172	2940.754664	12.557043	0.018584	3.102222
143.141343	2934.716437	12.562048	0.018589	3.099365
143.048472	2928.722933	12.567053	0.018608	3.096515
142.939117	2922.710850	12.572058	0.018630	3.093652
143.003578	2916.704710	12.577063	0.018619	3.090813
142.833718	2910.715004	12.582067	0.018653	3.087947
142.724963	2904.676214	12.587072	0.018675	3.085063
142.667692	2898.719879	12.592077	0.018687	3.082223
142.572455	2892.696961	12.597082	0.018706	3.079343
142.431534	2886.678766	12.602087	0.018734	3.076457
142.496143	2880.674495	12.607091	0.018723	3.073603
142.526117	2874.674850	12.612096	0.018719	3.070744
142.463704	2868.669467	12.617101	0.018732	3.067866
142.511285	2862.625563	12.622106	0.018725	3.064983
142.516481	2856.687196	12.627111	0.018726	3.062142
142.351963	2850.663090	12.632115	0.018758	3.059233
142.402185	2844.626926	12.637120	0.018750	3.056345
142.361098	2838.664384	12.642125	0.018759	3.053478
142.369603	2832.631741	12.647130	0.018759	3.050581
142.276613	2826.629662	12.652135	0.018778	3.047682
142.124671	2820.650154	12.657139	0.018808	3.044782
141.947008	2814.632881	12.662144	0.018843	3.041857
141.993717	2808.619062	12.667149	0.018836	3.038964
141.781859	2802.609394	12.672154	0.018877	3.036033
141.649909	2796.634260	12.677159	0.018903	3.033127
141.750968	2790.573822	12.682163	0.018886	3.030210
141.654345	2784.621058	12.687168	0.018905	3.027314
141.626491	2778.589856	12.692173	0.018912	3.024388
141.583310	2772.579358	12.697178	0.018921	3.021466
141.610339	2766.589803	12.702183	0.018918	3.018562
141.631101	2760.557775	12.707187	0.018915	3.015634
141.534536	2754.615285	12.712192	0.018935	3.012729
141.491204	2748.561464	12.717197	0.018945	3.009775
141.434870	2742.569987	12.722202	0.018957	3.006847
141.272850	2736.563455	12.727207	0.018989	3.003893
141.278102	2730.543039	12.732211	0.018989	3.000953
141.074150	2724.565451	12.737216	0.019029	2.998001
140.902873	2718.570080	12.742221	0.019063	2.995043
141.006750	2712.502313	12.747226	0.019045	2.992086
140.918733	2706.568514	12.752231	0.019063	2.989164
140.890291	2700.505114	12.757235	0.019069	2.986184
140.826597	2694.549804	12.762240	0.019083	2.983249
140.630092	2688.527856	12.767245	0.019121	2.980258
140.549500	2682.533117	12.772250	0.019138	2.977296
140.533401	2676.537719	12.777255	0.019142	2.974339
140.414805	2670.486041	12.782259	0.019166	2.971337
140.464190	2664.502625	12.787264	0.019158	2.968390
140.342750	2658.492449	12.792269	0.019182	2.965401
140.214953	2652.507976	12.797274	0.019208	2.962422
140.194920	2646.499721	12.802279	0.019213	2.959443
140.231408	2640.454085	12.807283	0.019208	2.956452
140.279954	2634.486375	12.812288	0.019200	2.953498
140.210867	2628.465793	12.817293	0.019215	2.950497
140.304372	2622.481466	12.822298	0.019199	2.947535
140.213089	2616.466008	12.827303	0.019217	2.944528
140.183431	2610.462591	12.832307	0.019224	2.941532
140.110308	2604.471538	12.837312	0.019239	2.938533
140.015945	2598.431181	12.842317	0.019259	2.935503
139.941093	2592.449915	12.847322	0.019274	2.932503
139.806563	2586.469773	12.852327	0.019301	2.929491
139.675250	2580.421368	12.857331	0.019327	2.926442
139.564547	2574.450291	12.862336	0.019349	2.923431
139.490257	2568.427776	12.867341	0.019365	2.920398
139.397754	2562.421428	12.872346	0.019384	2.917366
139.344501	2556.433683	12.877351	0.019395	2.914347
139.453014	2550.398791	12.882355	0.019376	2.911326
139.351327	2544.402276	12.887360	0.019397	2.908288
139.391065	2538.411227	12.892365	0.019391	2.905272
139.432554	2532.388148	12.897370	0.019385	2.902237
139.503823	2526.390070	12.902375	0.019373	2.899216
139.498251	2520.386406	12.907379	0.019375	2.896177
139.493957	2514.379416	12.912384	0.019377	2.893133
139.382195	2508.389297	12.917389	0.019400	2.890078
139.315200	2502.359374	12.922394	0.019414	2.887007
139.170322	2496.389717	12.927399	0.019443	2.883951
138.944497	2490.374478	12.932403	0.019486	2.880855
138.670751	2484.379846	12.937408	0.019539	2.877760
138.563712	2478.376478	12.942413	0.019561	2.874683
138.604868	2472.325198	12.947418	0.019555	2.871601
138.557702	2466.354995	12.952423	0.019565	2.868543
138.532428	2460.347892	12.957427	0.019571	2.865466
138.547189	2454.332577	12.962432	0.019570	2.862389
138.342656	2448.346355	12.967437	0.019610	2.859288
138.339167	2442.321042	12.972442	0.019612	2.856196
138.352283	2436.340297	12.977447	0.019611	2.853126
138.369670	2430.313699	12.982451	0.019609	2.850029
138.331770	2424.305735	12.987456	0.019618	2.846930
138.253889	2418.325070	12.992461	0.019634	2.843836
138.001331	2412.330167	12.997466	0.019683	2.840703
138.004635	2406.294307	13.002471	0.019684	2.837586
138.046988	2400.306185	13.007475	0.019677	2.834496
137.972089	2394.291872	13.012480	0.019693	2.831371
137.947319	2388.297134	13.017485	0.019699	2.828261
137.882727	2382.292984	13.022490	0.019712	2.825136
137.660056	2376.286492	13.027495	0.019756	2.821981
137.696448	2370.279705	13.032499	0.019750	2.818863
137.595671	2364.287625	13.037504	0.019771	2.815728
137.586373	2358.261510	13.042509	0.019774	2.812587
137.444714	2352.270391	13.047514	0.019802	2.809438
137.395582	2346.258723	13.052519	0.019813	2.806291
137.327006	2340.259235	13.057523	0.019827	2.803143
137.235598	2334.255101	13.062528	0.019846	2.799985
137.275030	2328.220342	13.067533	0.019840	2.796829
137.163300	2322.279545	13.072538	0.019862	2.793694
137.068366	2316.228604	13.077543	0.019882	2.790501
137.002615	2310.231398	13.082547	0.019895	2.787337
136.884117	2304.237815	13.087552	0.019919	2.784162
136.849423	2298.233469	13.092557	0.019927	2.780992
136.831055	2292.189532	13.097562	0.019932	2.777800
136.767390	2286.251660	13.102567	0.019946	2.774653
136.856578	2280.188759	13.107571	0.019930	2.771462
136.765219	2274.201797	13.112576	0.019949	2.768277
136.644702	2268.216711	13.117581	0.019973	2.765085
136.474953	2262.215697	13.122586	0.020006	2.761872
136.455252	2256.182169	13.127591	0.020012	2.758663
136.478745	2250.198548	13.132595	0.020009	2.755485
136.531356	2244.174078	13.137600	0.020000	2.752285
136.309721	2238.209788	13.142605	0.020043	2.749068
136.141831	2232.179763	13.147610	0.020076	2.745822
136.160058	2226.167276	13.152615	0.020074	2.742612
135.951672	2220.170672	13.157619	0.020115	2.739369
136.100807	2214.169354	13.162624	0.020088	2.736179
135.974023	2208.155762	13.167629	0.020114	2.732933
136.130135	2202.137161	13.172634	0.020086	2.729727
135.787443	2196.182728	13.177639	0.020152	2.726469
135.944213	2190.109046	13.182643	0.020124	2.723226
135.786349	2184.164652	13.187648	0.020155	2.719997
135.734474	2178.142778	13.192653	0.020166	2.716739
135.517199	2172.144715	13.197658	0.020208	2.713463
135.441967	2166.131466	13.202663	0.020224	2.710198
135.183431	2160.135718	13.207667	0.020274	2.706908
135.299311	2154.117494	13.212672	0.020254	2.703665
135.033309	2148.145179	13.217677	0.020305	2.700378
135.030033	2142.096114	13.222682	0.020307	2.697090
134.966945	2136.129983	13.227687	0.020321	2.693833
134.929376	2130.092638	13.232691	0.020329	2.690538
134.777760	2124.102001	13.237696	0.020359	2.687245
134.712661	2118.123020	13.242701	0.020373	2.683968
134.699732	2112.069906	13.247706	0.020377	2.680657
134.823231	2106.080490	13.252711	0.020355	2.677399
134.670766	2100.092994	13.257715	0.020385	2.674091
134.718981	2094.080457	13.262720	0.020377	2.670800
134.552356	2088.066955	13.267725	0.020410	2.667467
134.662602	2082.072973	13.272730	0.020391	2.664188
134.454174	2076.078696	13.277735	0.020432	2.660850
134.295503	2070.065621	13.282739	0.020463	2.657506
134.154744	2064.073210	13.287744	0.020491	2.654173
134.095176	2058.059651	13.292749	0.020503	2.650837
133.942169	2052.039859	13.297754	0.020534	2.647478
134.084039	2046.047066	13.302759	0.020508	2.644181
133.778972	2040.067675	13.307763	0.020567	2.640809
133.740726	2034.030981	13.312768	0.020576	2.637447
133.765619	2028.020403	13.317773	0.020573	2.634107
133.694272	2022.048225	13.322778	0.020588	2.630767
133.687949	2016.012712	13.327783	0.020590	2.627399
133.750147	2010.032731	13.332787	0.020580	2.624070
133.420213	2004.043960	13.337792	0.020643	2.620662
133.481109	1998.006449	13.342797	0.020634	2.617292
133.253268	1992.016428	13.347802	0.020678	2.613892
133.176068	1986.017012	13.352807	0.020694	2.610510
132.971414	1980.019363	13.357811	0.020734	2.607102
132.886823	1974.006719	13.362816	0.020751	2.603702
132.945731	1967.967901	13.367821	0.020741	2.600309
132.998822	1961.994052	13.372826	0.020733	2.596947
133.043376	1955.968508	13.377831	0.020726	2.593549
132.932797	1949.987352	13.382835	0.020748	2.590145
132.894831	1943.984905	13.387840	0.020757	2.586737
132.926504	1937.968154	13.392845	0.020752	2.583329
132.779448	1931.990054	13.397850	0.020782	2.579906
132.624776	1925.941532	13.402855	0.020812	2.576437
132.477452	1919.958889	13.407859	0.020841	2.573002
132.478888	1913.953699	13.412864	0.020842	2.569577
132.325599	1907.960702	13.417869	0.020873	2.566126
132.166229	1901.975096	13.422874	0.020904	2.562673
132.020502	1895.934739	13.427879	0.020933	2.559187
132.015460	1889.962880	13.432883	0.020935	2.555761
131.895366	1883.942486	13.437888	0.020959	2.552282
131.839884	1877.935965	13.442893	0.020971	2.548817
131.593995	1871.960583	13.447898	0.021019	2.545331
131.569130	1865.929605	13.452903	0.021025	2.541849
131.452596	1859.910430	13.457907	0.021048	2.538352
131.616790	1853.923487	13.462912	0.021019	2.534920
131.483894	1847.922090	13.467917	0.021045	2.531421
131.511238	1841.905762	13.472922	0.021042	2.527937
131.379730	1835.915538	13.477927	0.021068	2.524435
131.221098	1829.922606	13.482931	0.021099	2.520921
131.296218	1823.902455	13.487936	0.021087	2.517430
131.232887	1817.883602	13.492941	0.021100	2.513909
130.813736	1811.949824	13.497946	0.021180	2.510365
130.642836	1805.915259	13.502951	0.021214	2.506805
130.546946	1799.875559	13.507955	0.021233	2.503250
130.698324	1793.868095	13.512960	0.021206	2.499756
130.643845	1787.888701	13.517965	0.021218	2.496235
130.530718	1781.898283	13.522970	0.021241	2.492691
130.401756	1775.850861	13.527975	0.021266	2.489105
130.308802	1769.900843	13.532979	0.021285	2.485579
130.290533	1763.845863	13.537984	0.021290	2.482000
130.338088	1757.850565	13.542989	0.021283	2.478463
130.355326	1751.869133	13.547994	0.021281	2.474924
130.317059	1745.857695	13.552999	0.021290	2.471351
130.124345	1739.874633	13.558003	0.021327	2.467761
130.064922	1733.849278	13.563008	0.021340	2.464165
130.023166	1727.842993	13.568013	0.021349	2.460579
129.970219	1721.865076	13.573018	0.021361	2.457003
129.891878	1715.833400	13.578023	0.021377	2.453384
129.684580	1709.849504	13.583027	0.021417	2.449763
129.499611	1703.857974	13.588032	0.021453	2.446137
129.443364	1697.830172	13.593037	0.021465	2.442509
129.353680	1691.804870	13.598042	0.021484	2.438870
129.468033	1685.840811	13.603047	0.021464	2.435303
129.319026	1679.814202	13.608051	0.021493	2.431641
129.278954	1673.831264	13.613056	0.021502	2.428022
129.092524	1667.804431	13.618061	0.021539	2.424341
129.114516	1661.824701	13.623066	0.021536	2.420725
129.120151	1655.800065	13.628071	0.021537	2.417072
129.078259	1649.807766	13.633075	0.021546	2.413425
128.887270	1643.797669	13.638080	0.021583	2.409731
128.817023	1637.809146	13.643085	0.021598	2.406069
128.514502	1631.821725	13.648090	0.021656	2.402356
128.483129	1625.797361	13.653095	0.021663	2.398668
128.362274	1619.772354	13.658099	0.021688	2.394956
128.314011	1613.800669	13.663104	0.021698	2.391286
128.082445	1607.797443	13.668109	0.021743	2.387554
128.183878	1601.754116	13.673114	0.021726	2.383859
128.029945	1595.795306	13.678119	0.021756	2.380158
127.964042	1589.785353	13.683123	0.021770	2.376438
127.823846	1583.769635	13.688128	0.021798	2.372693
127.703850	1577.773518	13.693133	0.021822	2.368959
127.562031	1571.766191	13.698138	0.021850	2.365207
127.494242	1565.776808	13.703143	0.021864	2.361476
127.003055	1559.801887	13.708147	0.021958	2.357661
126.981279	1553.764805	13.713152	0.021963	2.353897
126.734123	1547.754911	13.718157	0.022011	2.350098
126.793519	1541.750468	13.723162	0.022001	2.346359
126.750673	1535.742406	13.728167	0.022011	2.342591
126.590155	1529.750029	13.733171	0.022042	2.338802
126.500666	1523.735338	13.738176	0.022061	2.335008
126.573180	1517.728810	13.743181	0.022049	2.331247
126.040168	1511.780255	13.748186	0.022150	2.327389
126.143971	1505.723875	13.753191	0.022132	2.323591
125.991866	1499.720261	13.758195	0.022162	2.319765
125.968309	1493.732173	13.763200	0.022168	2.315971
125.843910	1487.723341	13.768205	0.022193	2.312135
125.875002	1481.714075	13.773210	0.022189	2.308326
125.639843	1475.733808	13.778215	0.022234	2.304472
125.674339	1469.695845	13.783219	0.022229	2.300633
125.457030	1463.743659	13.788224	0.022271	2.296788
125.411272	1457.705873	13.793229	0.022282	2.292919
125.278300	1451.712637	13.798234	0.022308	2.289053
125.263389	1445.694048	13.803239	0.022312	2.285189
125.067199	1439.704159	13.808243	0.022351	2.281299
125.219770	1433.700005	13.813248	0.022323	2.277467
124.848155	1427.716713	13.818253	0.022395	2.273530
124.754605	1421.706108	13.823258	0.022414	2.269628
124.571937	1415.684729	13.828263	0.022449	2.265693
124.617603	1409.683066	13.833267	0.022442	2.261814
124.610897	1403.671872	13.838272	0.022445	2.257910
124.607974	1397.680361	13.843277	0.022447	2.254013
124.234211	1391.699428	13.848282	0.022519	2.250036
123.979775	1385.699835	13.853287	0.022568	2.246065
123.886241	1379.677123	13.858291	0.022587	2.242107
123.919372	1373.678751	13.863296	0.022582	2.238186
123.784160	1367.668690	13.868301	0.022609	2.234214
123.584951	1361.671618	13.873306	0.022648	2.230228
123.363430	1355.670167	13.878311	0.022691	2.226228
123.386349	1349.678238	13.883315	0.022688	2.222281
123.274721	1343.664580	13.888320	0.022711	2.218283
122.984425	1337.702185	13.893325	0.022767	2.214271
122.823257	1331.630889	13.898330	0.022798	2.210209
122.792258	1325.668301	13.903335	0.022806	2.206241
122.586925	1319.652895	13.908339	0.022846	2.202191
122.639451	1313.654296	13.913344	0.022837	2.198203
122.478677	1307.649470	13.918349	0.022869	2.194155
122.089866	1301.705015	13.923354	0.022943	2.190089
121.733464	1295.649650	13.928359	0.023012	2.185949
121.633283	1289.659402	13.933363	0.023032	2.181902
121.570408	1283.639756	13.938368	0.023045	2.177836
121.481563	1277.638988	13.943373	0.023063	2.173769
121.302893	1271.622307	13.948378	0.023098	2.169664
121.280409	1265.629270	13.953383	0.023104	2.165602
121.136882	1259.625292	13.958387	0.023133	2.161498
121.223724	1253.636377	13.963392	0.023118	2.157449
120.919149	1247.639524	13.968397	0.023176	2.153297
120.782835	1241.657150	13.973402	0.023203	2.149185
120.503100	1235.630505	13.978407	0.023257	2.145002
120.555000	1229.603539	13.983411	0.023249	2.140888
120.257193	1223.638389	13.988416	0.023307	2.136727
120.201162	1217.633511	13.993421	0.023319	2.132586
119.921842	1211.637346	13.998426	0.023372	2.128392
119.666524	1205.646038	14.003431	0.023422	2.124198
119.386363	1199.627180	14.008435	0.023476	2.119971
119.189132	1193.638624	14.013440	0.023514	2.115776
119.000305	1187.586493	14.018445	0.023551	2.111530
118.913702	1181.629728	14.023450	0.023569	2.107366
118.750410	1175.621788	14.028455	0.023601	2.103140
118.759167	1169.605604	14.033459	0.023601	2.098941
118.647336	1163.598063	14.038464	0.023623	2.094710
118.568765	1157.613247	14.043469	0.023640	2.090495
118.256462	1151.591107	14.048474	0.023700	2.086189
118.220827	1145.605621	14.053479	0.023708	2.081966
118.139750	1139.588530	14.058483	0.023725	2.077702
118.144539	1133.603809	14.063488	0.023725	2.073472
118.023009	1127.578564	14.068493	0.023750	2.069175
117.904487	1121.617863	14.073498	0.023773	2.064915
117.526821	1115.630586	14.078503	0.023846	2.060564
117.352922	1109.603211	14.083507	0.023880	2.056225
117.172898	1103.577719	14.088512	0.023915	2.051877
117.185676	1097.577306	14.093517	0.023914	2.047584
116.773439	1091.624682	14.098522	0.023993	2.043213
116.609390	1085.619460	14.103527	0.024025	2.038855
116.493870	1079.571031	14.108531	0.024048	2.034469
116.508091	1073.590056	14.113536	0.024047	2.030154
116.361869	1067.570230	14.118541	0.024076	2.025762
116.081031	1061.620883	14.123546	0.024130	2.021378
115.940658	1055.571800	14.128551	0.024158	2.016947
115.883086	1049.572201	14.133555	0.024170	2.012563
115.720741	1043.595804	14.138560	0.024202	2.008160
115.563938	1037.596027	14.143565	0.024233	2.003732
115.423406	1031.578985	14.148570	0.024261	1.999285
115.455792	1025.554065	14.153575	0.024257	1.994866
115.051379	1019.612488	14.158579	0.024334	1.990388
114.915724	1013.612813	14.163584	0.024361	1.985925
114.526795	1007.590347	14.168589	0.024435	1.981371
114.437385	1001.584649	14.173594	0.024454	1.976895
114.333161	995.555772	14.178599	0.024475	1.972388
114.167139	989.607270	14.183603	0.024507	1.967915
113.931489	983.565709	14.188608	0.024553	1.963344
113.863057	977.590422	14.193613	0.024567	1.958855
113.719483	971.573313	14.198618	0.024596	1.954304
113.582476	965.593812	14.203623	0.024623	1.949774
113.470079	959.562329	14.208627	0.024645	1.945199
113.310276	953.600321	14.213632	0.024677	1.940655
112.916432	947.578849	14.218637	0.024752	1.935993
112.794682	941.592077	14.223642	0.024777	1.931417
112.479311	935.580200	14.228647	0.024837	1.926761
112.450067	929.557809	14.233651	0.024844	1.922160
112.473085	923.549914	14.238656	0.024841	1.917574
112.330250	917.584074	14.243661	0.024870	1.912965
111.867463	911.610654	14.248666	0.024958	1.908253
111.832874	905.570705	14.253671	0.024966	1.903593
111.692329	899.573017	14.258675	0.024994	1.898926
111.693315	893.554819	14.263680	0.024995	1.894270
111.251089	887.622629	14.268685	0.025080	1.889549
111.029088	881.581180	14.273690	0.025123	1.884791
110.953024	875.557923	14.278695	0.025139	1.880074
110.963366	869.571482	14.283699	0.025138	1.875398
110.718271	863.585296	14.288704	0.025186	1.870641
110.406989	857.607273	14.293709	0.025245	1.865859
110.158998	851.580144	14.298714	0.025293	1.861044
110.106777	845.573972	14.303719	0.025305	1.856287
109.808611	839.595660	14.308723	0.025362	1.851472
109.667515	833.582232	14.313728	0.025390	1.846660
109.396162	827.577351	14.318733	0.025443	1.841806
109.522795	821.557238	14.323738	0.025420	1.837038
109.397622	815.563873	14.328743	0.025445	1.832208
109.261798	809.593854	14.333747	0.025472	1.827382
109.008174	803.589412	14.338752	0.025521	1.822481
108.930699	797.581803	14.343757	0.025537	1.817615
108.672536	791.589523	14.348762	0.025587	1.812697
108.582106	785.588015	14.353767	0.025606	1.807805
108.318141	779.608346	14.358771	0.025657	1.802869
108.154835	773.591577	14.363776	0.025689	1.797917
107.940161	767.592399	14.368781	0.025731	1.792951
107.742696	761.624218	14.373786	0.025769	1.788002
107.645782	755.571926	14.378791	0.025789	1.782999
107.488899	749.612405	14.383795	0.025820	1.778041
107.084698	743.608825	14.388800	0.025897	1.772961
107.065166	737.594711	14.393805	0.025902	1.767969
106.866494	731.595253	14.398810	0.025941	1.762923
106.826680	725.614033	14.403815	0.025950	1.757925
106.270315	719.641487	14.408819	0.026056	1.752767
106.407876	713.564926	14.413824	0.026032	1.747711
106.258124	707.609982	14.418829	0.026061	1.742659
105.995282	701.637083	14.423834	0.026112	1.737542
105.676785	695.629668	14.428839	0.026173	1.732365
105.717158	689.590587	14.433843	0.026167	1.727252
105.518253	683.620133	14.438848	0.026206	1.722111
105.373444	677.623293	14.443853	0.026235	1.716949
105.218975	671.617484	14.448858	0.026265	1.711760
105.029833	665.646302	14.453863	0.026302	1.706574
104.588519	659.653551	14.458867	0.026386	1.701277
104.554070	653.615852	14.463872	0.026394	1.696050
104.475464	647.608438	14.468877	0.026410	1.690818
104.201588	641.662753	14.473882	0.026463	1.685564
103.888406	635.657133	14.478887	0.026524	1.680229
103.789804	629.632641	14.483891	0.026544	1.674927
103.619597	623.644876	14.488896	0.026577	1.669618
103.545588	617.630786	14.493901	0.026592	1.664299
103.140699	611.704925	14.498906	0.026670	1.658937
102.979296	605.654950	14.503911	0.026702	1.653524
102.810489	599.659688	14.508915	0.026735	1.648140
102.789501	593.646096	14.513920	0.026740	1.642768
102.666288	587.654685	14.518925	0.026765	1.637366
102.560696	581.676761	14.523930	0.026786	1.631964
102.142802	575.716444	14.528935	0.026866	1.626460
101.998570	569.666854	14.533939	0.026895	1.620944
101.756444	563.676808	14.538944	0.026941	1.615432
101.813165	557.660087	14.543949	0.026932	1.609974
101.583593	551.682309	14.548954	0.026977	1.604439
101.403036	545.735558	14.553959	0.027012	1.598929
100.922752	539.723707	14.558963	0.027104	1.593243
100.885905	533.700215	14.563968	0.027112	1.587671
100.592481	527.733708	14.568973	0.027169	1.582047
100.659514	521.675483	14.573978	0.027158	1.576437
100.142280	515.767727	14.578983	0.027256	1.570754
100.061181	509.718572	14.583987	0.027273	1.565063
99.832766	503.750275	14.588992	0.027317	1.559377
99.491826	497.778706	14.593997	0.027383	1.553630
99.323475	491.743179	14.599002	0.027416	1.547859
99.347138	485.728599	14.604007	0.027413	1.542152
99.202609	479.745755	14.609011	0.027441	1.536396
99.131315	473.762555	14.614016	0.027456	1.530644
98.697694	467.791473	14.619021	0.027539	1.524756
98.632151	461.775051	14.624026	0.027553	1.518930
98.444566	455.785959	14.629031	0.027590	1.513065
98.384476	449.783120	14.634035	0.027602	1.507208
98.190800	443.790149	14.639040	0.027640	1.501291
98.024099	437.804728	14.644045	0.027673	1.495367
97.569318	431.862012	14.649050	0.027760	1.489360
97.447881	425.824553	14.654055	0.027784	1.483353
97.292704	419.813945	14.659059	0.027815	1.477337
97.153366	413.837991	14.664064	0.027842	1.471336
96.942053	407.833211	14.669069	0.027883	1.465255
96.786376	401.866545	14.674074	0.027914	1.459208
96.382740	395.887607	14.679079	0.027991	1.453033
96.222679	389.874243	14.684083	0.028023	1.446885
96.113014	383.851044	14.689088	0.028045	1.440720
95.883174	377.918003	14.694093	0.028089	1.434576
95.559391	371.888530	14.699098	0.028152	1.428272
95.462425	365.924861	14.704103	0.028171	1.422092
95.206737	359.898691	14.709107	0.028221	1.415760
94.937793	353.968978	14.714112	0.028273	1.409496
94.477796	347.969695	14.719117	0.028361	1.403059
94.419076	341.933281	14.724122	0.028373	1.396705
94.239400	335.949809	14.729127	0.028408	1.390332
94.116318	329.958128	14.734131	0.028433	1.383942
93.883881	323.964322	14.739136	0.028478	1.377479
93.619502	317.992980	14.744141	0.028529	1.370996
93.522034	311.986380	14.749146	0.028549	1.364510
93.345445	306.007408	14.754151	0.028583	1.357992
93.032820	300.032636	14.759155	0.028644	1.351393
92.855539	294.046520	14.764160	0.028678	1.344802
92.569488	288.058325	14.769165	0.028733	1.338134
92.336803	282.065060	14.774170	0.028779	1.331448
91.940654	276.106502	14.779175	0.028854	1.324701
91.810998	270.072544	14.784179	0.028880	1.317943
91.581720	264.097943	14.789184	0.028925	1.311176
91.449442	258.071269	14.794189	0.028951	1.304354
91.443245	252.048298	14.799194	0.028954	1.297554
91.123916	246.159869	14.804199	0.029015	1.290740
90.747752	240.167186	14.809203	0.029087	1.283748
90.582835	234.169213	14.814208	0.029120	1.276799
90.396845	228.163600	14.819213	0.029156	1.269795
90.273621	222.200311	14.824218	0.029181	1.262827
89.914887	216.227444	14.829223	0.029249	1.255709
89.695431	210.227466	14.834227	0.029292	1.248579
89.554480	204.241760	14.839232	0.029320	1.241458
89.218214	198.284258	14.844237	0.029385	1.234244
88.964917	192.288081	14.849242	0.029434	1.226979
88.639948	186.329969	14.854247	0.029496	1.219683
88.413435	180.308969	14.859251	0.029540	1.212312
88.234052	174.339689	14.864256	0.029575	1.204979
87.853382	168.382134	14.869261	0.029648	1.197525
87.431200	162.440490	14.874266	0.029729	1.190026
87.068101	156.427082	14.879271	0.029798	1.182416
86.902330	150.426198	14.884275	0.029831	1.174863
86.589472	144.450240	14.889280	0.029891	1.167225
86.298023	138.475013	14.894285	0.029947	1.159547
86.187299	132.465773	14.899290	0.029970	1.151859
85.994764	126.524251	14.904295	0.030007	1.144167
85.668980	120.523111	14.909299	0.030070	1.136283
85.446792	114.564275	14.914304	0.030113	1.128449
85.227130	108.592303	14.919309	0.030156	1.120543
84.707419	102.670241	14.924314	0.030255	1.112502
84.425912	96.656920	14.929319	0.030309	1.104397
84.116605	90.689217	14.934323	0.030368	1.096279
83.706812	84.726946	14.939328	0.030447	1.088058
83.685433	78.684074	14.944333	0.030452	1.079859
83.229786	72.797109	14.949338	0.030539	1.071592
82.881953	66.818232	14.954343	0.030606	1.063188
82.334216	60.876921	14.959347	0.030710	1.054667
82.124538	54.865243	14.964352	0.030751	1.046153
81.715901	48.903318	14.969357	0.030829	1.037535
81.321450	42.957490	14.974362	0.030905	1.028875
80.950709	36.991796	14.979367	0.030976	1.020125
80.565042	31.039152	14.984371	0.031050	1.011310
80.109145	25.075445	14.989376	0.031137	1.002364
79.613124	19.138635	14.994381	0.031231	0.993354
79.144128	13.152054	14.999386	0.031321	0.984203
78.669269	7.234450	15.004391	0.031411	0.975066
77.992231	3.010774	15.009395	0.031539	0.968301
