Fri Jan 13 17:27:19 2023

Number of Points = 3000
Depth (nm)	Load (µN)	Time (s)	Depth (V)	Load (V)
-0.750750	1.493967	0.000000	0.033981	0.958633
0.000000	4.607171	0.005005	0.033839	0.963818
0.909951	9.094163	0.010010	0.033667	0.971145
1.748197	14.728007	0.015014	0.033509	0.980098
2.694332	20.667157	0.020019	0.033330	0.989483
3.372966	26.735261	0.025024	0.033201	0.998822
4.051652	32.794290	0.030029	0.033072	1.008062
4.670028	38.859757	0.035034	0.032955	1.017195
5.411364	44.891066	0.040038	0.032814	1.026262
5.848893	51.003698	0.045043	0.032730	1.035205
6.477652	57.042397	0.050048	0.032611	1.044067
6.902000	63.115178	0.055053	0.032530	1.052797
7.291371	69.187402	0.060058	0.032455	1.061436
7.676985	75.229398	0.065062	0.032381	1.069961
8.068634	81.269499	0.070067	0.032306	1.078419
8.412424	87.336797	0.075072	0.032240	1.086825
8.810043	93.364340	0.080077	0.032164	1.095139
9.314224	99.381664	0.085082	0.032068	1.103428
9.675250	105.459862	0.090086	0.031999	1.111667
9.994164	111.505092	0.095091	0.031938	1.119781
10.312051	117.550261	0.100096	0.031876	1.127836
10.548901	123.598514	0.105101	0.031830	1.135799
11.053340	129.617734	0.110106	0.031734	1.143796
11.255072	135.663165	0.115110	0.031695	1.151629
11.590590	141.704963	0.120115	0.031631	1.159466
11.907299	147.736295	0.125120	0.031570	1.167229
12.238282	153.787474	0.130125	0.031506	1.174971
12.476446	159.814369	0.135130	0.031460	1.182591
12.975020	165.816390	0.140134	0.031365	1.190248
13.230511	171.883540	0.145139	0.031315	1.197827
13.711013	177.887923	0.150144	0.031224	1.205382
13.748028	183.990464	0.155149	0.031215	1.212813
14.153519	189.992093	0.160154	0.031138	1.220238
14.249882	196.048310	0.165158	0.031118	1.227549
14.569007	202.052139	0.170163	0.031057	1.234851
14.832956	208.082956	0.175168	0.031006	1.242118
15.231511	214.080160	0.180173	0.030929	1.249361
15.495430	220.153524	0.185178	0.030878	1.256594
15.820588	226.165847	0.190182	0.030816	1.263740
15.972778	232.223632	0.195187	0.030786	1.270825
16.236172	238.242122	0.200192	0.030735	1.277873
16.405762	244.293862	0.205197	0.030702	1.284880
16.617476	250.300119	0.210202	0.030660	1.291816
17.201446	256.266247	0.215206	0.030549	1.298822
17.587475	262.377894	0.220211	0.030475	1.305873
18.002876	268.326359	0.225216	0.030396	1.312715
18.316072	274.410110	0.230221	0.030336	1.319631
18.480352	280.428088	0.235226	0.030303	1.326378
18.733166	286.454886	0.240230	0.030254	1.333136
18.915678	292.496298	0.245235	0.030219	1.339848
19.251819	298.499254	0.250240	0.030154	1.346545
19.556725	304.501902	0.255245	0.030095	1.353196
19.949493	310.540358	0.260250	0.030020	1.359888
20.174323	316.576163	0.265254	0.029977	1.366479
20.456563	322.605355	0.270259	0.029922	1.373053
20.518601	328.677941	0.275264	0.029909	1.379557
20.705113	334.672586	0.280269	0.029873	1.385995
20.926658	340.666124	0.285274	0.029829	1.392416
21.186538	346.726436	0.290278	0.029779	1.398892
21.369567	352.710519	0.295283	0.029743	1.405229
21.810461	358.725949	0.300288	0.029659	1.411668
22.041522	364.768031	0.305293	0.029614	1.418026
22.356725	370.798723	0.310298	0.029554	1.424375
22.338096	376.849343	0.315302	0.029556	1.430593
22.683909	382.822222	0.320307	0.029489	1.436838
22.922551	388.861628	0.325312	0.029443	1.443085
23.271229	394.870178	0.330317	0.029376	1.449314
23.445340	400.914278	0.335322	0.029342	1.455489
23.810699	406.909972	0.340326	0.029272	1.461658
24.017045	412.935388	0.345331	0.029232	1.467773
24.217485	418.984078	0.350336	0.029193	1.473884
24.309293	425.014875	0.355341	0.029174	1.479913
24.478199	431.013854	0.360346	0.029141	1.485914
24.874986	437.011240	0.365350	0.029065	1.491969
25.690738	442.945129	0.370355	0.028910	1.498085
25.840534	449.083575	0.375360	0.028881	1.504143
26.091630	455.092895	0.380365	0.028832	1.510085
26.327292	461.105290	0.385370	0.028786	1.516002
26.561714	467.141727	0.390374	0.028741	1.521919
26.776803	473.151510	0.395379	0.028699	1.527780
26.842607	479.197445	0.400384	0.028685	1.533603
27.118718	485.201710	0.405389	0.028632	1.539435
27.352913	491.193793	0.410394	0.028586	1.545220
27.611374	497.216389	0.415398	0.028536	1.551020
28.043105	503.221082	0.420403	0.028454	1.556839
28.144326	509.280320	0.425408	0.028433	1.562578
28.418811	515.295823	0.430413	0.028380	1.568312
28.540415	521.323775	0.435418	0.028356	1.573986
28.719969	527.351177	0.440422	0.028321	1.579658
28.884053	533.330224	0.445427	0.028289	1.585260
29.463144	539.299331	0.450432	0.028179	1.590969
29.608221	545.398926	0.455437	0.028150	1.596636
29.740427	551.420772	0.460442	0.028123	1.602207
29.814597	557.431297	0.465446	0.028108	1.607730
30.118981	563.435267	0.470451	0.028049	1.613302
30.439090	569.452313	0.475456	0.027988	1.618872
30.469083	575.497512	0.480461	0.027981	1.624355
30.853684	581.451082	0.485466	0.027907	1.629851
31.232333	587.481709	0.490470	0.027835	1.635395
31.435326	593.516540	0.495475	0.027795	1.640868
31.549770	599.562824	0.500480	0.027772	1.646306
31.590155	605.584072	0.505485	0.027763	1.651679
32.103529	611.520771	0.510490	0.027665	1.657109
32.071090	617.625324	0.515494	0.027670	1.662499
32.168951	623.620161	0.520499	0.027650	1.667815
32.349087	629.619922	0.525504	0.027615	1.673144
32.714235	635.617706	0.530509	0.027545	1.678512
33.103591	641.631327	0.535514	0.027470	1.683883
33.203024	647.685859	0.540518	0.027450	1.689184
33.434309	653.696220	0.545523	0.027405	1.694471
33.645730	659.707406	0.550528	0.027364	1.699736
33.609574	665.732851	0.555533	0.027369	1.704921
33.938356	671.717105	0.560538	0.027306	1.710166
34.006698	677.780327	0.565542	0.027292	1.715383
34.355924	683.737661	0.570547	0.027225	1.720579
34.375439	689.804181	0.575552	0.027220	1.725754
34.416322	695.842216	0.580557	0.027210	1.730895
34.731915	701.774232	0.585562	0.027150	1.736012
34.940749	707.834895	0.590566	0.027109	1.741192
35.140247	713.829353	0.595571	0.027070	1.746298
35.437567	719.847281	0.600576	0.027013	1.751437
35.567243	725.876282	0.605581	0.026987	1.756521
35.820024	731.878753	0.610586	0.026938	1.761605
35.987099	737.915854	0.615590	0.026905	1.766677
36.255626	743.905166	0.620595	0.026853	1.771725
36.572134	749.922488	0.625600	0.026792	1.776795
36.702531	755.946705	0.630605	0.026766	1.781803
36.660678	761.994078	0.635610	0.026773	1.786766
36.966614	767.964774	0.640614	0.026714	1.791753
37.082395	773.992726	0.645619	0.026691	1.796718
37.367646	779.986051	0.650624	0.026636	1.801689
37.602401	786.006671	0.655629	0.026590	1.806654
37.799440	792.032308	0.660634	0.026552	1.811600
37.992227	798.048919	0.665638	0.026514	1.816523
38.243266	804.042384	0.670643	0.026465	1.821430
38.400343	810.090395	0.675648	0.026434	1.826342
38.435854	816.111250	0.680653	0.026426	1.831185
38.724477	822.081462	0.685658	0.026371	1.836045
38.840601	828.125469	0.690662	0.026347	1.840903
38.916704	834.157931	0.695667	0.026332	1.845727
39.022786	840.148406	0.700672	0.026310	1.850515
39.394068	846.137154	0.705677	0.026239	1.855361
39.495624	852.188830	0.710682	0.026219	1.860171
39.724053	858.176061	0.715686	0.026174	1.864952
39.967211	864.182368	0.720691	0.026127	1.869740
40.289799	870.191714	0.725696	0.026065	1.874539
40.562252	876.220088	0.730701	0.026012	1.879327
40.674319	882.245333	0.735706	0.025990	1.884058
40.836687	888.264383	0.740710	0.025958	1.888785
40.983711	894.266781	0.745715	0.025929	1.893483
41.233455	900.285991	0.750720	0.025881	1.898210
41.345826	906.278475	0.755725	0.025858	1.902868
41.587766	912.310673	0.760730	0.025811	1.907580
41.891814	918.293655	0.765734	0.025753	1.912259
41.967687	924.343523	0.770739	0.025737	1.916917
41.945251	930.363331	0.775744	0.025740	1.921515
42.121874	936.365976	0.780749	0.025705	1.926141
42.280017	942.355151	0.785754	0.025674	1.930741
42.541303	948.394377	0.790758	0.025623	1.935395
42.540463	954.410432	0.795763	0.025622	1.939951
42.601064	960.429354	0.800768	0.025609	1.944516
42.704151	966.423577	0.805773	0.025588	1.949062
43.012719	972.419433	0.810778	0.025529	1.953651
43.182977	978.447224	0.815782	0.025495	1.958219
43.213731	984.478276	0.820787	0.025488	1.962742
43.393114	990.466858	0.825792	0.025453	1.967261
43.671804	996.457877	0.830797	0.025399	1.971797
44.770039	1002.325841	0.835802	0.025192	1.976440
45.673135	1008.442237	0.840806	0.025021	1.981207
45.798194	1014.531583	0.845811	0.024996	1.985744
46.040736	1020.512072	0.850816	0.024949	1.990221
46.182774	1026.549936	0.855821	0.024921	1.994704
46.302683	1032.572777	0.860826	0.024897	1.999160
46.336498	1038.578634	0.865830	0.024889	2.003573
46.446697	1044.601048	0.870835	0.024867	2.008007
46.557796	1050.601483	0.875840	0.024844	2.012415
46.712311	1056.621561	0.880845	0.024814	2.016839
46.858495	1062.600904	0.885850	0.024785	2.021222
47.013234	1068.638289	0.890854	0.024754	2.025639
47.192544	1074.633540	0.895859	0.024719	2.030022
47.391563	1080.645804	0.900864	0.024680	2.034413
47.484869	1086.683989	0.905869	0.024661	2.038787
47.675559	1092.665237	0.910874	0.024624	2.043134
47.992563	1098.680103	0.915878	0.024563	2.047528
48.090022	1104.703724	0.920883	0.024543	2.051864
48.474095	1110.692484	0.925888	0.024470	2.056236
48.710876	1116.703862	0.930893	0.024424	2.060579
48.973306	1122.723602	0.935898	0.024373	2.064926
49.162529	1128.732818	0.940902	0.024336	2.069237
49.352214	1134.765639	0.945907	0.024299	2.073557
49.430599	1140.792761	0.950912	0.024283	2.077837
49.569144	1146.789111	0.955917	0.024255	2.082100
49.829668	1152.785264	0.960922	0.024205	2.086385
49.886128	1158.799994	0.965926	0.024193	2.090624
50.096280	1164.837393	0.970931	0.024152	2.094907
50.326426	1170.803758	0.975936	0.024107	2.099137
50.393922	1176.838050	0.980941	0.024093	2.103367
50.569341	1182.875968	0.985946	0.024059	2.107617
50.734470	1188.851560	0.990950	0.024026	2.111812
50.927710	1194.879645	0.995955	0.023989	2.116042
51.015509	1200.884888	1.000960	0.023971	2.120222
51.148658	1206.902084	1.005965	0.023944	2.124414
51.262563	1212.893428	1.010970	0.023921	2.128575
51.541892	1218.913017	1.015974	0.023867	2.132785
51.727949	1224.946315	1.020979	0.023831	2.136975
51.855612	1230.924365	1.025984	0.023806	2.141106
51.949001	1236.958985	1.030989	0.023787	2.145259
52.247344	1242.951043	1.035994	0.023729	2.149422
52.383386	1248.962599	1.040998	0.023702	2.153554
52.581614	1255.002727	1.046003	0.023663	2.157711
52.660479	1260.991455	1.051008	0.023647	2.161797
52.841976	1267.003775	1.056013	0.023612	2.165916
53.062679	1273.014737	1.061018	0.023569	2.170034
53.144129	1279.044441	1.066022	0.023552	2.174126
53.278814	1285.039394	1.071027	0.023525	2.178199
53.393414	1291.066152	1.076032	0.023502	2.182280
53.632301	1297.058091	1.081037	0.023456	2.186359
53.748555	1303.062816	1.086042	0.023433	2.190412
53.841214	1309.099073	1.091046	0.023414	2.194472
53.973562	1315.092573	1.096051	0.023387	2.198505
53.984976	1321.121860	1.101056	0.023384	2.202528
54.091683	1327.140308	1.106061	0.023362	2.206557
54.409983	1333.080328	1.111066	0.023301	2.210575
54.670217	1339.138326	1.116070	0.023251	2.214650
54.726289	1345.161636	1.121075	0.023239	2.218649
54.984992	1351.128964	1.126080	0.023189	2.222649
55.040582	1357.182842	1.131085	0.023177	2.226654
55.341181	1363.158590	1.136090	0.023119	2.230654
55.494211	1369.210615	1.141094	0.023089	2.234665
55.544528	1375.201753	1.146099	0.023078	2.238606
55.584570	1381.217188	1.151104	0.023069	2.242553
55.730202	1387.240034	1.156109	0.023040	2.246522
55.769845	1393.232893	1.161114	0.023031	2.250441
55.973375	1399.254966	1.166118	0.022991	2.254408
55.965219	1405.279356	1.171123	0.022991	2.258323
56.254945	1411.240922	1.176128	0.022935	2.262256
56.326391	1417.286311	1.181133	0.022921	2.266188
56.418883	1423.281398	1.186138	0.022902	2.270086
56.648412	1429.292321	1.191142	0.022857	2.274017
56.811842	1435.283728	1.196147	0.022825	2.277914
56.940624	1441.329836	1.201152	0.022799	2.281832
57.129175	1447.325491	1.206157	0.022762	2.285724
57.314963	1453.317590	1.211162	0.022726	2.289607
57.622399	1459.333571	1.216166	0.022667	2.293523
57.658921	1465.366158	1.221171	0.022659	2.297387
57.760046	1471.380161	1.226176	0.022638	2.301245
57.965123	1477.372094	1.231181	0.022598	2.305105
58.077264	1483.371388	1.236186	0.022576	2.308944
58.409615	1489.379446	1.241190	0.022512	2.312828
58.343901	1495.443387	1.246195	0.022523	2.316658
58.434026	1501.420067	1.251200	0.022504	2.320458
58.585320	1507.418051	1.256205	0.022474	2.324279
58.734771	1513.443490	1.261210	0.022445	2.328110
58.804958	1519.457779	1.266214	0.022430	2.331911
59.008841	1525.468611	1.271219	0.022390	2.335732
59.066127	1531.467895	1.276224	0.022378	2.339509
59.289415	1537.460308	1.281229	0.022335	2.343310
59.322377	1543.492434	1.286234	0.022327	2.347090
59.532823	1549.503834	1.291238	0.022286	2.350887
59.584244	1555.504860	1.296243	0.022275	2.354640
59.541690	1561.542181	1.301248	0.022282	2.358389
59.628270	1567.525964	1.306253	0.022264	2.362126
59.887909	1573.532355	1.311258	0.022214	2.365906
60.019678	1579.541192	1.316262	0.022187	2.369656
60.189012	1585.560952	1.321267	0.022154	2.373414
60.314117	1591.556610	1.326272	0.022129	2.377143
60.453749	1597.576017	1.331277	0.022101	2.380883
60.573986	1603.596399	1.336282	0.022077	2.384613
60.818231	1609.576233	1.341286	0.022030	2.388338
60.980843	1615.596950	1.346291	0.021998	2.392066
61.124242	1621.628392	1.351296	0.021970	2.395791
61.214771	1627.623843	1.356301	0.021951	2.399477
61.410894	1633.624197	1.361306	0.021913	2.403182
61.660910	1639.634011	1.366310	0.021865	2.406897
61.680976	1645.676705	1.371315	0.021859	2.410581
61.914679	1651.657026	1.376320	0.021814	2.414264
62.210930	1657.648106	1.381325	0.021757	2.417960
62.196070	1663.689892	1.386330	0.021758	2.421620
62.196025	1669.724098	1.391334	0.021757	2.425272
62.417996	1675.670155	1.396339	0.021714	2.428910
62.532803	1681.727037	1.401344	0.021690	2.432588
62.597583	1687.731447	1.406349	0.021677	2.436218
62.676885	1693.743772	1.411354	0.021660	2.439851
62.661124	1699.738869	1.416358	0.021662	2.443450
62.828564	1705.745667	1.421363	0.021629	2.447086
62.833239	1711.788661	1.426368	0.021627	2.450706
63.124290	1717.750880	1.431373	0.021571	2.454329
63.420014	1723.737624	1.436378	0.021514	2.457962
63.823722	1729.750257	1.441382	0.021436	2.461626
64.156225	1735.811295	1.446387	0.021372	2.465299
64.490176	1741.750060	1.451392	0.021308	2.468894
64.720961	1747.823829	1.456397	0.021264	2.472544
64.950848	1753.819560	1.461402	0.021219	2.476143
65.058638	1759.845547	1.466406	0.021197	2.479730
65.188565	1765.841462	1.471411	0.021171	2.483299
65.209169	1771.860318	1.476416	0.021166	2.486856
65.371933	1777.874414	1.481421	0.021134	2.490431
65.453652	1783.886860	1.486426	0.021117	2.493985
65.418323	1789.886239	1.491430	0.021122	2.497505
65.528596	1795.902112	1.496435	0.021100	2.501056
65.596410	1801.921673	1.501440	0.021086	2.504596
65.668880	1807.900522	1.506445	0.021071	2.508109
65.826561	1813.924206	1.511450	0.021040	2.511659
66.088336	1819.927790	1.516454	0.020989	2.515212
66.129846	1825.943765	1.521459	0.020980	2.518725
66.253142	1831.941292	1.526464	0.020955	2.522238
66.368066	1837.949165	1.531469	0.020932	2.525751
66.690682	1843.956801	1.536474	0.020870	2.529297
66.652683	1849.999876	1.541478	0.020876	2.532792
66.779804	1855.964984	1.546483	0.020850	2.536268
66.769770	1862.023258	1.551488	0.020851	2.539767
66.921745	1867.997788	1.556493	0.020821	2.543243
66.907789	1874.024655	1.561498	0.020822	2.546714
67.018197	1880.026889	1.566502	0.020800	2.550188
67.261543	1886.037706	1.571507	0.020753	2.553688
67.402841	1892.016176	1.576512	0.020725	2.557145
67.674326	1898.039627	1.581517	0.020672	2.560647
67.759741	1904.078711	1.586522	0.020655	2.564120
67.877657	1910.065088	1.591526	0.020631	2.567563
68.196651	1916.059575	1.596531	0.020570	2.571043
68.334594	1922.107705	1.601536	0.020542	2.574516
68.411527	1928.142170	1.606541	0.020526	2.577966
68.540412	1934.100041	1.611546	0.020501	2.581376
68.653854	1940.128318	1.616550	0.020478	2.584819
68.677623	1946.122255	1.621555	0.020472	2.588222
68.787636	1952.128866	1.626560	0.020450	2.591644
68.967993	1958.127978	1.631565	0.020415	2.595069
69.035437	1964.161996	1.636570	0.020400	2.598489
69.195020	1970.143933	1.641574	0.020369	2.601891
69.372584	1976.171630	1.646579	0.020334	2.605319
69.443379	1982.188049	1.651584	0.020319	2.608716
69.503342	1988.188004	1.656589	0.020307	2.612097
69.667345	1994.179695	1.661594	0.020274	2.615489
69.932225	2000.203824	1.666598	0.020223	2.618911
70.004347	2006.200374	1.671603	0.020208	2.622280
70.072609	2012.215415	1.676608	0.020194	2.625654
70.264769	2018.224409	1.681613	0.020156	2.629042
70.411755	2024.246369	1.686618	0.020127	2.632425
70.440499	2030.253609	1.691622	0.020120	2.635775
70.584130	2036.276230	1.696627	0.020092	2.639149
70.634329	2042.248762	1.701632	0.020081	2.642474
71.025180	2048.252879	1.706637	0.020006	2.645873
71.153185	2054.286643	1.711642	0.019981	2.649238
71.175612	2060.322856	1.716646	0.019975	2.652581
71.233590	2066.290731	1.721651	0.019963	2.655888
71.395798	2072.331680	1.726656	0.019931	2.659250
71.582114	2078.292290	1.731661	0.019894	2.662567
71.606500	2084.336517	1.736666	0.019888	2.665899
71.921423	2090.323431	1.741670	0.019828	2.669244
72.150234	2096.336682	1.746675	0.019783	2.672586
72.054376	2102.371005	1.751680	0.019800	2.675878
72.214561	2108.359471	1.756685	0.019768	2.679186
72.332029	2114.370031	1.761690	0.019745	2.682494
72.295103	2120.392047	1.766694	0.019750	2.685777
72.397921	2126.398666	1.771699	0.019729	2.689073
72.455635	2132.408552	1.776704	0.019717	2.692358
72.533772	2138.387268	1.781709	0.019701	2.695626
72.761905	2144.421600	1.786714	0.019657	2.698945
72.812145	2150.422099	1.791718	0.019646	2.702212
73.037624	2156.423912	1.796723	0.019602	2.705506
73.231650	2162.452279	1.801728	0.019564	2.708804
73.435502	2168.437128	1.806733	0.019524	2.712077
73.525436	2174.449399	1.811738	0.019506	2.715341
73.712506	2180.464621	1.816742	0.019469	2.718619
73.779550	2186.486522	1.821747	0.019455	2.721876
73.952584	2192.470369	1.826752	0.019421	2.725127
73.917692	2198.532248	1.831757	0.019426	2.728381
73.942760	2204.498289	1.836762	0.019420	2.731590
74.006262	2210.520504	1.841766	0.019407	2.734832
74.258297	2216.502173	1.846771	0.019358	2.738079
74.257659	2222.532541	1.851776	0.019357	2.741307
74.484048	2228.524981	1.856781	0.019313	2.744548
74.543055	2234.559241	1.861786	0.019300	2.747780
74.720355	2240.556207	1.866790	0.019265	2.751008
74.841235	2246.561472	1.871795	0.019241	2.754227
74.982530	2252.562213	1.876800	0.019213	2.757443
75.096792	2258.583748	1.881805	0.019190	2.760662
75.325572	2264.586229	1.886810	0.019146	2.763886
75.263650	2270.613083	1.891814	0.019156	2.767072
75.414954	2276.604259	1.896819	0.019126	2.770269
75.638703	2282.611285	1.901824	0.019083	2.773484
75.821423	2288.593221	1.906829	0.019047	2.776674
75.959703	2294.632628	1.911834	0.019019	2.779885
76.159017	2300.638281	1.916838	0.018980	2.783083
76.442914	2306.618863	1.921843	0.018926	2.786278
76.805348	2312.654070	1.926848	0.018856	2.789512
76.904362	2318.676300	1.931853	0.018836	2.792691
77.083531	2324.649729	1.936858	0.018801	2.795855
77.182049	2330.688929	1.941862	0.018781	2.799036
77.396634	2336.686103	1.946867	0.018739	2.802211
77.504800	2342.693193	1.951872	0.018718	2.805369
77.614382	2348.734795	1.956877	0.018695	2.808543
77.863807	2354.695293	1.961882	0.018647	2.811693
77.924398	2360.731610	1.966886	0.018634	2.814849
78.056435	2366.719738	1.971891	0.018608	2.817987
78.150402	2372.744967	1.976896	0.018589	2.821136
78.098236	2378.761807	1.981901	0.018597	2.824253
78.467284	2384.744247	1.986906	0.018527	2.827415
78.630313	2390.763793	1.991910	0.018494	2.830561
78.770454	2396.791742	1.996915	0.018467	2.833704
78.976208	2402.753780	2.001920	0.018427	2.836820
79.107754	2408.793655	2.006925	0.018400	2.839961
79.240005	2414.811632	2.011930	0.018374	2.843087
79.395699	2420.794588	2.016934	0.018343	2.846195
79.479879	2426.823689	2.021939	0.018326	2.849312
79.645018	2432.826155	2.026944	0.018294	2.852425
79.736779	2438.818217	2.031949	0.018275	2.855518
79.799082	2444.862369	2.036954	0.018262	2.858629
79.934892	2450.843141	2.041958	0.018235	2.861716
80.058253	2456.864765	2.046963	0.018210	2.864819
80.049950	2462.892291	2.051968	0.018210	2.867901
80.094680	2468.881372	2.056973	0.018200	2.870968
80.253593	2474.863470	2.061978	0.018169	2.874046
80.511283	2480.879555	2.066982	0.018119	2.877153
81.019098	2486.876988	2.071987	0.018022	2.880286
81.067140	2492.922477	2.076992	0.018012	2.883369
81.234905	2498.904211	2.081997	0.017979	2.886435
81.403670	2504.926566	2.087002	0.017946	2.889518
81.612551	2510.956813	2.092006	0.017905	2.892609
81.736005	2516.947462	2.097011	0.017880	2.895662
81.710987	2522.959374	2.102016	0.017884	2.898700
81.957958	2528.966668	2.107021	0.017836	2.901775
81.795065	2534.967554	2.112026	0.017865	2.904780
82.136122	2540.963490	2.117030	0.017799	2.907857
82.305610	2546.974618	2.122035	0.017766	2.910912
82.551480	2552.999430	2.127040	0.017719	2.913982
82.661171	2559.002420	2.132045	0.017696	2.917017
82.795680	2565.003597	2.137050	0.017670	2.920052
82.867614	2571.019451	2.142054	0.017655	2.923082
83.221732	2576.998016	2.147059	0.017587	2.926132
83.215661	2583.057591	2.152064	0.017586	2.929166
83.393176	2589.063618	2.157069	0.017552	2.932197
83.330914	2595.023343	2.162074	0.017562	2.935165
83.530698	2601.076434	2.167078	0.017523	2.938217
83.644297	2607.054198	2.172083	0.017500	2.941215
83.710299	2613.078188	2.177088	0.017486	2.944226
83.867283	2619.083485	2.182093	0.017455	2.947238
84.191747	2625.089833	2.187098	0.017393	2.950273
84.179839	2631.095618	2.192102	0.017394	2.953254
84.364156	2637.103846	2.197107	0.017358	2.956262
84.365984	2643.122751	2.202112	0.017356	2.959245
84.536150	2649.126801	2.207117	0.017322	2.962244
84.816700	2655.122203	2.212122	0.017268	2.965251
84.703752	2661.163588	2.217126	0.017288	2.968219
84.824916	2667.141352	2.222131	0.017264	2.971188
84.937092	2673.163334	2.227136	0.017241	2.974174
85.210512	2679.158335	2.232141	0.017188	2.977168
85.209580	2685.204899	2.237146	0.017187	2.980143
85.288090	2691.172097	2.242150	0.017171	2.983089
85.402366	2697.193047	2.247155	0.017148	2.986063
85.463268	2703.185740	2.252160	0.017135	2.989012
85.588489	2709.231436	2.257165	0.017110	2.991994
85.737031	2715.187611	2.262170	0.017081	2.994932
85.927448	2721.232359	2.267174	0.017043	2.997917
85.928036	2727.235077	2.272179	0.017042	3.000851
86.115986	2733.228093	2.277184	0.017005	3.003804
86.154125	2739.262173	2.282189	0.016996	3.006753
86.434850	2745.242747	2.287194	0.016942	3.009708
86.462440	2751.272021	2.292198	0.016936	3.012647
86.734846	2757.258104	2.297203	0.016883	3.015598
86.751266	2763.285855	2.302208	0.016878	3.018529
86.850939	2769.305664	2.307213	0.016858	3.021465
86.908792	2775.274892	2.312218	0.016846	3.024368
86.926984	2781.328722	2.317222	0.016841	3.027303
86.965485	2787.319808	2.322227	0.016832	3.030208
87.194838	2793.296871	2.327232	0.016788	3.033131
87.271532	2799.334800	2.332237	0.016772	3.036058
87.366086	2805.348066	2.337242	0.016753	3.038974
87.451085	2811.362867	2.342246	0.016735	3.041886
87.623925	2817.330890	2.347251	0.016701	3.044785
87.739901	2823.353984	2.352256	0.016678	3.047699
87.886517	2829.380352	2.357261	0.016649	3.050617
88.037284	2835.344361	2.362266	0.016619	3.053503
88.169127	2841.405623	2.367270	0.016593	3.056430
88.383057	2847.362525	2.372275	0.016551	3.059315
88.529267	2853.420821	2.377280	0.016522	3.062237
88.473697	2859.402173	2.382285	0.016531	3.065091
88.755203	2865.406685	2.387290	0.016477	3.068001
88.980722	2871.436829	2.392294	0.016433	3.070912
88.998470	2877.424011	2.397299	0.016428	3.073771
89.130666	2883.453874	2.402304	0.016402	3.076663
89.395203	2889.432856	2.407309	0.016351	3.079547
89.286557	2895.464925	2.412314	0.016370	3.082402
89.556406	2901.453095	2.417318	0.016318	3.085286
89.571468	2907.485005	2.422323	0.016314	3.088152
89.644803	2913.507402	2.427328	0.016298	3.091019
89.669135	2919.464795	2.432333	0.016292	3.093846
89.895845	2925.523330	2.437338	0.016248	3.096747
89.800138	2931.487381	2.442342	0.016265	3.099555
90.091323	2937.510674	2.447347	0.016209	3.102442
90.117019	2943.512284	2.452352	0.016202	3.105280
90.347872	2949.534860	2.457357	0.016157	3.108153
90.401363	2955.553370	2.462362	0.016146	3.110997
90.627578	2961.524294	2.467366	0.016102	3.113840
90.550677	2967.554810	2.472371	0.016115	3.116667
90.765321	2973.566789	2.477376	0.016073	3.119522
90.864211	2979.560307	2.482381	0.016053	3.122350
90.988428	2985.588545	2.487386	0.016028	3.125196
91.015016	2991.594163	2.492390	0.016022	3.128014
91.166794	2997.614769	2.497395	0.015992	3.130855
91.285326	3003.562496	2.502400	0.015968	3.133654
91.629304	3009.581638	2.507405	0.015902	3.136515
92.350091	3015.577162	2.512410	0.015765	3.139413
92.709455	3021.608717	2.517414	0.015696	3.142276
92.756227	3027.631588	2.522419	0.015686	3.145090
92.951864	3033.636113	2.527424	0.015648	3.147913
93.003773	3039.651597	2.532429	0.015637	3.150720
93.210432	3045.637679	2.537434	0.015597	3.153531
93.184062	3051.678600	2.542438	0.015600	3.156333
93.603288	3057.638878	2.547443	0.015520	3.159156
93.528495	3063.692509	2.552448	0.015532	3.161953
93.615187	3069.675070	2.557453	0.015515	3.164736
93.560637	3075.710539	2.562458	0.015523	3.167523
93.744089	3081.709518	2.567462	0.015487	3.170322
93.750364	3087.692755	2.572467	0.015485	3.173087
93.989337	3093.722282	2.577472	0.015438	3.175902
94.159934	3099.716083	2.582477	0.015405	3.178690
94.234504	3105.757845	2.587482	0.015389	3.181484
94.265520	3111.727293	2.592486	0.015382	3.184237
94.447601	3117.750743	2.597491	0.015347	3.187032
94.581136	3123.760943	2.602496	0.015320	3.189812
94.573869	3129.771409	2.607501	0.015320	3.192571
94.497239	3135.788639	2.612506	0.015333	3.195322
94.759616	3141.784425	2.617510	0.015282	3.198105
94.679874	3147.810901	2.622515	0.015295	3.200855
94.924362	3153.773993	2.627520	0.015248	3.203616
95.027541	3159.821851	2.632525	0.015227	3.206395
95.299444	3165.794493	2.637530	0.015175	3.209159
95.405725	3171.820595	2.642534	0.015153	3.211924
95.350643	3177.821473	2.647539	0.015162	3.214653
95.520416	3183.818559	2.652544	0.015129	3.217408
95.705209	3189.850198	2.657549	0.015093	3.220178
95.646654	3195.837260	2.662554	0.015102	3.222894
95.813127	3201.887339	2.667558	0.015069	3.225666
95.786823	3207.863668	2.672563	0.015073	3.228376
95.971541	3213.888008	2.677568	0.015037	3.231134
96.044637	3219.864709	2.682573	0.015022	3.233852
96.835176	3225.746672	2.687578	0.014872	3.236619
99.590443	3231.812645	2.692582	0.014353	3.239719
99.970959	3237.852349	2.697587	0.014280	3.242499
100.075865	3243.921290	2.702592	0.014259	3.245254
100.321583	3249.942232	2.707597	0.014212	3.248003
100.217402	3255.945318	2.712602	0.014230	3.250696
100.527545	3261.914594	2.717606	0.014170	3.253426
100.580423	3267.934381	2.722611	0.014159	3.256142
100.705033	3273.960385	2.727616	0.014134	3.258869
100.679036	3279.945979	2.732621	0.014137	3.261556
100.944862	3285.967805	2.737626	0.014086	3.264294
100.845054	3291.971075	2.742630	0.014103	3.266974
101.295611	3297.992618	2.747635	0.014017	3.269731
101.135444	3303.981814	2.752640	0.014046	3.272394
101.297659	3310.012287	2.757645	0.014014	3.275113
101.197846	3316.005325	2.762650	0.014031	3.277781
101.290431	3322.048068	2.767654	0.014012	3.280492
101.363272	3327.991608	2.772659	0.013997	3.283155
101.588490	3334.058026	2.777664	0.013953	3.285890
101.614748	3340.037907	2.782669	0.013947	3.288558
101.636853	3346.052582	2.787674	0.013941	3.291240
101.680693	3352.036571	2.792678	0.013931	3.293908
101.955804	3358.040370	2.797683	0.013878	3.296612
102.018755	3364.071013	2.802688	0.013865	3.299299
102.263149	3370.066814	2.807693	0.013818	3.301991
102.187056	3376.090866	2.812698	0.013830	3.304654
102.329723	3382.090671	2.817702	0.013802	3.307331
102.357183	3388.105205	2.822707	0.013795	3.309997
102.525522	3394.090704	2.827712	0.013762	3.312667
102.446128	3400.148506	2.832717	0.013776	3.315335
102.602953	3406.122285	2.837722	0.013745	3.317994
102.639831	3412.131723	2.842726	0.013736	3.320651
102.800257	3418.134051	2.847731	0.013705	3.323318
102.793103	3424.147801	2.852736	0.013705	3.325967
103.123679	3430.147749	2.857741	0.013641	3.328650
103.001969	3436.165604	2.862746	0.013663	3.331283
103.026121	3442.175098	2.867750	0.013657	3.333928
103.180618	3448.154394	2.872755	0.013626	3.336573
103.228797	3454.223697	2.877760	0.013616	3.339243
103.283489	3460.165038	2.882765	0.013604	3.341856
103.422995	3466.215690	2.887770	0.013576	3.344524
103.408024	3472.203743	2.892774	0.013577	3.347145
103.494799	3478.235955	2.897779	0.013560	3.349795
103.506768	3484.208802	2.902784	0.013556	3.352407
103.541841	3490.236367	2.907789	0.013548	3.355045
103.647076	3496.238454	2.912794	0.013527	3.357678
103.873903	3502.253053	2.917798	0.013483	3.360329
104.057136	3508.225149	2.922803	0.013447	3.362954
104.127055	3514.280077	2.927808	0.013432	3.365599
104.312190	3520.259039	2.932813	0.013396	3.368223
104.386551	3526.272754	2.937818	0.013380	3.370847
104.510017	3532.268962	2.942822	0.013356	3.373467
104.721130	3538.278000	2.947827	0.013315	3.376101
104.865879	3544.290771	2.952832	0.013286	3.378726
105.160845	3550.285482	2.957837	0.013229	3.381360
105.434394	3556.316184	2.962842	0.013176	3.384005
105.654057	3562.297355	2.967846	0.013134	3.386619
105.924931	3568.340629	2.972851	0.013081	3.389265
106.071848	3574.310937	2.977856	0.013052	3.391862
106.087369	3580.355413	2.982861	0.013048	3.394474
106.289770	3586.361004	2.987866	0.013008	3.397089
106.266842	3592.355156	2.992870	0.013011	3.399670
106.703618	3598.344022	2.997875	0.012928	3.402301
107.017399	3604.353460	3.002880	0.012867	3.404925
107.513211	3610.369930	3.007885	0.012773	3.407571
107.530283	3616.415353	3.012890	0.012768	3.410171
107.663988	3622.360632	3.017894	0.012742	3.412740
107.887078	3628.409659	3.022899	0.012698	3.415362
108.274669	3634.406668	3.027904	0.012624	3.417979
108.142504	3640.413212	3.032909	0.012647	3.420537
108.428668	3646.429189	3.037914	0.012592	3.423146
108.516274	3652.423247	3.042918	0.012574	3.425720
108.659484	3658.449747	3.047923	0.012546	3.428313
108.659779	3664.452710	3.052928	0.012544	3.430877
108.727874	3670.466507	3.057933	0.012530	3.433452
108.706871	3676.445489	3.062938	0.012533	3.435999
108.959776	3682.491871	3.067942	0.012484	3.438606
108.915440	3688.480351	3.072947	0.012490	3.441151
108.979376	3694.503892	3.077952	0.012477	3.443721
109.016530	3700.471695	3.082957	0.012469	3.446263
109.229047	3706.529186	3.087962	0.012427	3.448862
109.325069	3712.509061	3.092966	0.012408	3.451412
109.477488	3718.531062	3.097971	0.012378	3.453984
109.418125	3724.490732	3.102976	0.012387	3.456504
109.608828	3730.559995	3.107981	0.012350	3.459097
109.603161	3736.530110	3.112986	0.012350	3.461624
109.737735	3742.565443	3.117990	0.012323	3.464192
109.941582	3748.520032	3.122995	0.012283	3.466733
110.072425	3754.589837	3.128000	0.012257	3.469311
110.086179	3760.554628	3.133005	0.012253	3.471831
110.172921	3766.602473	3.138010	0.012235	3.474391
110.191879	3772.564242	3.143014	0.012230	3.476906
110.320110	3778.628324	3.148019	0.012205	3.479474
110.313694	3784.580482	3.153024	0.012204	3.481979
110.489303	3790.631810	3.158029	0.012170	3.484543
110.596871	3796.609445	3.163034	0.012148	3.487068
110.832080	3802.635109	3.168038	0.012103	3.489624
110.806372	3808.608420	3.173043	0.012106	3.492128
110.974889	3814.670693	3.178048	0.012073	3.494689
111.016448	3820.624865	3.183053	0.012064	3.497188
111.237755	3826.660231	3.188058	0.012021	3.499740
111.178608	3832.653169	3.193062	0.012030	3.502241
111.419509	3838.665278	3.198067	0.011983	3.504782
111.337996	3844.684063	3.203072	0.011997	3.507287
111.588855	3850.670936	3.208077	0.011949	3.509815
111.526707	3856.692388	3.213082	0.011959	3.512320
111.718968	3862.713522	3.218086	0.011921	3.514851
111.721683	3868.699961	3.223091	0.011919	3.517346
111.910122	3874.712147	3.228096	0.011882	3.519869
112.135313	3880.705388	3.233101	0.011839	3.522388
112.365809	3886.727156	3.238106	0.011794	3.524916
112.534952	3892.728428	3.243110	0.011761	3.527428
112.795527	3898.760029	3.248115	0.011710	3.529961
112.583345	3904.759781	3.253120	0.011749	3.532426
112.832647	3910.754154	3.258125	0.011700	3.534938
112.958185	3916.756542	3.263130	0.011675	3.537438
113.026938	3922.783667	3.268134	0.011661	3.539941
113.140893	3928.767554	3.273139	0.011638	3.542428
113.193264	3934.797802	3.278144	0.011627	3.544926
113.400329	3940.790387	3.283149	0.011586	3.547424
113.618703	3946.793371	3.288154	0.011544	3.549926
113.609288	3952.805999	3.293158	0.011544	3.552405
113.766638	3958.824723	3.298163	0.011513	3.554903
113.885684	3964.826845	3.303168	0.011489	3.557388
114.236040	3970.819627	3.308173	0.011422	3.559893
114.362816	3976.829041	3.313178	0.011397	3.562378
114.608667	3982.852939	3.318182	0.011349	3.564881
114.628798	3988.856597	3.323187	0.011344	3.567349
114.758484	3994.862805	3.328192	0.011318	3.569828
114.809362	4000.866696	3.333197	0.011307	3.572296
114.927400	4006.879100	3.338202	0.011284	3.574773
114.935343	4012.888233	3.343206	0.011281	3.577235
115.202601	4018.874210	3.348211	0.011229	3.579714
115.158666	4024.903869	3.353216	0.011236	3.582175
115.324268	4030.904525	3.358221	0.011203	3.584645
115.449467	4036.926939	3.363226	0.011178	3.587119
115.554744	4042.906790	3.368230	0.011157	3.589571
115.639639	4048.926013	3.373235	0.011140	3.592035
115.770717	4054.936488	3.378240	0.011113	3.594499
115.939097	4060.930606	3.383245	0.011080	3.596958
116.046272	4066.964183	3.388250	0.011059	3.599426
116.096438	4072.966257	3.393254	0.011048	3.601872
116.321512	4078.974144	3.398259	0.011004	3.604338
116.309218	4084.977046	3.403264	0.011005	3.606775
116.478219	4090.978001	3.408269	0.010972	3.609229
116.374433	4096.952227	3.413274	0.010990	3.611642
116.484652	4102.969868	3.418278	0.010968	3.614093
116.502099	4108.938071	3.423283	0.010963	3.616512
116.807794	4114.973726	3.428288	0.010904	3.618988
116.890324	4120.943096	3.433293	0.010887	3.621412
117.012148	4127.002028	3.438298	0.010863	3.623874
116.978948	4132.973438	3.443302	0.010867	3.626283
117.170419	4139.002328	3.448307	0.010830	3.628737
117.158661	4144.968423	3.453312	0.010831	3.631143
117.431219	4151.036313	3.458317	0.010778	3.633618
117.318130	4157.017490	3.463322	0.010798	3.636016
117.549930	4163.036088	3.468326	0.010753	3.638464
117.477687	4169.009125	3.473331	0.010765	3.640860
117.669568	4175.042419	3.478336	0.010727	3.643306
117.760920	4181.034487	3.483341	0.010709	3.645723
118.154988	4187.063167	3.488346	0.010633	3.648185
118.197216	4193.027901	3.493350	0.010624	3.650583
118.377047	4199.090934	3.498355	0.010589	3.653033
118.504040	4205.040125	3.503360	0.010563	3.655431
118.779477	4211.078032	3.508365	0.010510	3.657877
118.938969	4217.068985	3.513370	0.010479	3.660292
119.201620	4223.118485	3.518374	0.010428	3.662738
119.294417	4229.098879	3.523379	0.010409	3.665138
119.505730	4235.113595	3.528384	0.010368	3.667562
119.567805	4241.098960	3.533389	0.010355	3.669958
119.832724	4247.143165	3.538394	0.010304	3.672396
119.955820	4253.105103	3.543398	0.010279	3.674785
120.163702	4259.168283	3.548403	0.010239	3.677222
120.307258	4265.129781	3.553408	0.010210	3.679610
120.349256	4271.189667	3.558413	0.010201	3.682025
120.423062	4277.155819	3.563418	0.010185	3.684405
120.617318	4283.167200	3.568422	0.010148	3.686813
120.740504	4289.149748	3.573427	0.010123	3.689201
120.928780	4295.201365	3.578432	0.010086	3.691622
120.907167	4301.184127	3.583437	0.010089	3.693992
121.152599	4307.199933	3.588442	0.010041	3.696401
121.349838	4313.192709	3.593446	0.010003	3.698794
121.547607	4319.216157	3.598451	0.009964	3.701198
121.481713	4325.219534	3.603456	0.009975	3.703566
121.666098	4331.244847	3.608461	0.009939	3.705966
121.782342	4337.232284	3.613466	0.009916	3.708343
121.896819	4343.224862	3.618470	0.009893	3.710720
121.832000	4349.270300	3.623475	0.009903	3.713098
122.077766	4355.240301	3.628480	0.009856	3.715477
122.121387	4361.272156	3.633485	0.009846	3.717858
122.304500	4367.261230	3.638490	0.009810	3.720234
122.364692	4373.295066	3.643494	0.009797	3.722614
122.558787	4379.266133	3.648499	0.009759	3.724982
122.849268	4385.300010	3.653504	0.009703	3.727382
122.928303	4391.300239	3.658509	0.009687	3.729746
122.937528	4397.303753	3.663514	0.009684	3.732103
123.089261	4403.324238	3.668518	0.009654	3.734480
123.175360	4409.324656	3.673523	0.009636	3.736840
123.301107	4415.314069	3.678528	0.009611	3.739199
123.410587	4421.339368	3.683533	0.009589	3.741569
123.553185	4427.344983	3.688538	0.009561	3.743932
123.610589	4433.346477	3.693542	0.009549	3.746284
123.744741	4439.369116	3.698547	0.009522	3.748651
123.822412	4445.361121	3.703552	0.009506	3.750998
123.945035	4451.398376	3.708557	0.009481	3.753366
123.955487	4457.370135	3.713562	0.009478	3.755696
124.169760	4463.395125	3.718566	0.009436	3.758065
124.270471	4469.367675	3.723571	0.009416	3.760402
124.459313	4475.426069	3.728576	0.009379	3.762778
124.559942	4481.396607	3.733581	0.009359	3.765111
124.823174	4487.431979	3.738586	0.009308	3.767483
124.563040	4493.426123	3.743590	0.009355	3.769786
124.800034	4499.421867	3.748595	0.009309	3.772138
124.971050	4505.429995	3.753600	0.009276	3.774486
124.975161	4511.474197	3.758605	0.009273	3.776830
125.125622	4517.441107	3.763610	0.009244	3.779157
125.166989	4523.461705	3.768614	0.009234	3.781493
125.294676	4529.466022	3.773619	0.009209	3.783829
125.577181	4535.477311	3.778624	0.009154	3.786182
125.673235	4541.464828	3.783629	0.009135	3.788506
125.859622	4547.497325	3.788634	0.009098	3.790855
125.843233	4553.505084	3.793638	0.009100	3.793173
126.018094	4559.510810	3.798643	0.009066	3.795507
126.051916	4565.543386	3.803648	0.009058	3.797837
126.224504	4571.502918	3.808653	0.009024	3.800150
126.394381	4577.524406	3.813658	0.008991	3.802486
126.536572	4583.537916	3.818662	0.008962	3.804814
126.556604	4589.553941	3.823667	0.008957	3.807131
126.503575	4595.523591	3.828672	0.008966	3.809421
126.613004	4601.560435	3.833677	0.008944	3.811751
126.804114	4607.565267	3.838682	0.008906	3.814075
126.802823	4613.576076	3.843686	0.008905	3.816381
127.064278	4619.556232	3.848691	0.008855	3.818699
126.965436	4625.591244	3.853696	0.008872	3.821003
127.328290	4631.608315	3.858701	0.008802	3.823342
127.338337	4637.574719	3.863706	0.008799	3.825627
127.591597	4643.610990	3.868710	0.008750	3.827961
127.698834	4649.583469	3.873715	0.008728	3.830255
127.899608	4655.681920	3.878720	0.008689	3.832604
128.123097	4661.603589	3.883725	0.008645	3.834886
128.174713	4667.666261	3.888730	0.008634	3.837205
128.164689	4673.606193	3.893734	0.008635	3.839470
128.604851	4679.651582	3.898739	0.008551	3.841816
128.719357	4685.651631	3.903744	0.008528	3.844112
129.083807	4691.658547	3.908749	0.008458	3.846433
129.079675	4697.714043	3.913754	0.008457	3.848737
129.162727	4703.696692	3.918758	0.008440	3.851020
129.299391	4709.660708	3.923763	0.008413	3.853299
129.632894	4715.702464	3.928768	0.008349	3.855625
129.652030	4721.700987	3.933773	0.008344	3.857904
129.895597	4727.702323	3.938778	0.008296	3.860203
129.878832	4733.742365	3.943782	0.008298	3.862492
130.023252	4739.706917	3.948787	0.008270	3.864765
130.099009	4745.738046	3.953792	0.008254	3.867056
130.292852	4751.730681	3.958797	0.008216	3.869342
130.235075	4757.763727	3.963802	0.008225	3.871619
130.422083	4763.737157	3.968806	0.008189	3.873894
130.279603	4769.775661	3.973811	0.008214	3.876162
130.479863	4775.751334	3.978816	0.008175	3.878437
130.425336	4781.769595	3.983821	0.008184	3.880703
130.811598	4787.794015	3.988826	0.008110	3.883010
130.786338	4793.794035	3.993830	0.008113	3.885269
130.967702	4799.794482	3.998835	0.008077	3.887546
130.978098	4805.779574	4.003840	0.008074	3.889800
131.085614	4811.835830	4.008845	0.008052	3.892089
131.110550	4817.785375	4.013850	0.008046	3.894328
131.431525	4823.850115	4.018854	0.007984	3.896637
131.326984	4829.808174	4.023859	0.008003	3.898865
131.412272	4835.859166	4.028864	0.007985	3.901144
131.384116	4841.833011	4.033869	0.007989	3.903382
131.415324	4847.869193	4.038874	0.007982	3.905648
131.646203	4853.829724	4.043878	0.007937	3.907903
131.667815	4859.887789	4.048883	0.007931	3.910173
131.684546	4865.864623	4.053888	0.007927	3.912412
132.021290	4871.888634	4.058893	0.007862	3.914695
131.923166	4877.894330	4.063898	0.007879	3.916932
132.122427	4883.875964	4.068902	0.007840	3.919185
132.113395	4889.933933	4.073907	0.007840	3.921446
132.414628	4895.899716	4.078912	0.007782	3.923699
132.422357	4901.916295	4.083917	0.007779	3.925944
132.552731	4907.931104	4.088922	0.007753	3.928198
132.666933	4913.929007	4.093926	0.007730	3.930442
132.700321	4919.960715	4.098931	0.007723	3.932691
132.931724	4925.925677	4.103936	0.007678	3.934932
133.019299	4931.947975	4.108941	0.007660	3.937179
132.974648	4937.939093	4.113946	0.007667	3.939402
133.117416	4944.000462	4.118950	0.007638	3.941666
133.112114	4949.979723	4.123955	0.007638	3.943886
133.191699	4955.994211	4.128960	0.007622	3.946125
133.279090	4961.951336	4.133965	0.007604	3.948342
133.586170	4968.008471	4.138970	0.007545	3.950614
133.589516	4973.999311	4.143974	0.007542	3.952833
133.706702	4980.036358	4.148979	0.007519	3.955079
133.713416	4986.012090	4.153984	0.007516	3.957290
133.965930	4992.015327	4.158989	0.007467	3.959532
134.097991	4998.027120	4.163994	0.007441	3.961766
134.275624	5004.054343	4.168998	0.007406	3.964008
134.360719	5010.040248	4.174003	0.007389	3.966225
134.472380	5016.035919	4.179008	0.007366	3.968447
134.690008	5022.052168	4.184013	0.007324	3.970684
134.893857	5028.064165	4.189018	0.007284	3.972918
134.857769	5034.089092	4.194022	0.007290	3.975134
135.075215	5040.091177	4.199027	0.007247	3.977362
135.171877	5046.068479	4.204032	0.007228	3.979570
135.369321	5052.136533	4.209037	0.007189	3.981818
135.525131	5058.083697	4.214042	0.007158	3.984018
135.731876	5064.107195	4.219046	0.007118	3.986248
135.792853	5070.107358	4.224051	0.007105	3.988456
136.017776	5076.138546	4.229056	0.007061	3.990688
136.124604	5082.115066	4.234061	0.007040	3.992889
136.306796	5088.157258	4.239066	0.007004	3.995119
136.445937	5094.110741	4.244070	0.006977	3.997311
136.529982	5100.182903	4.249075	0.006959	3.999541
136.576270	5106.153854	4.254080	0.006949	4.001730
136.710711	5112.179099	4.259085	0.006923	4.003945
136.821392	5118.171454	4.264090	0.006900	4.006144
137.013606	5124.174504	4.269094	0.006863	4.008353
137.287307	5130.175511	4.274099	0.006810	4.010567
137.506361	5136.190210	4.279104	0.006767	4.012781
137.462562	5142.224555	4.284109	0.006774	4.014977
137.731728	5148.195725	4.289114	0.006722	4.017176
137.599339	5154.204278	4.294118	0.006745	4.019354
138.009490	5160.249519	4.299123	0.006667	4.021589
138.043439	5166.220606	4.304128	0.006659	4.023765
138.321179	5172.252201	4.309133	0.006605	4.025982
138.171224	5178.212669	4.314138	0.006632	4.028135
138.310811	5184.278071	4.319142	0.006604	4.030350
138.332857	5190.231486	4.324147	0.006599	4.032514
138.500160	5196.287665	4.329152	0.006566	4.034725
138.550696	5202.260761	4.334157	0.006555	4.036896
138.634605	5208.295670	4.339162	0.006538	4.039090
138.722933	5214.294079	4.344166	0.006520	4.041270
139.020310	5220.286871	4.349171	0.006462	4.043465
139.021008	5226.307061	4.354176	0.006461	4.045644
139.108825	5232.293877	4.359181	0.006443	4.047816
139.177323	5238.319529	4.364186	0.006428	4.050000
139.212566	5244.322459	4.369190	0.006420	4.052172
139.394781	5250.324861	4.374195	0.006385	4.054354
139.632508	5256.361001	4.379200	0.006339	4.056553
139.716488	5262.352090	4.384205	0.006321	4.058721
139.679866	5268.397678	4.389210	0.006327	4.060897
139.757353	5274.342137	4.394214	0.006311	4.063045
139.933584	5280.380591	4.399219	0.006276	4.065234
139.885643	5286.369955	4.404224	0.006284	4.067386
140.058220	5292.384573	4.409229	0.006250	4.069564
140.105032	5298.388891	4.414234	0.006240	4.071727
140.170115	5304.412206	4.419238	0.006226	4.073896
140.228850	5310.404570	4.424243	0.006213	4.076053
140.354827	5316.396862	4.429248	0.006188	4.078215
140.429988	5322.419726	4.434253	0.006173	4.080382
140.649102	5328.435432	4.439258	0.006130	4.082557
140.685874	5334.426550	4.444262	0.006122	4.084707
140.821781	5340.441714	4.449267	0.006095	4.086873
140.822243	5346.444044	4.454272	0.006093	4.089022
140.944934	5352.486142	4.459277	0.006069	4.091193
140.887506	5358.446955	4.464282	0.006078	4.093321
141.070108	5364.479175	4.469286	0.006042	4.095492
141.007431	5370.455307	4.474291	0.006052	4.097621
141.204338	5376.499471	4.479296	0.006014	4.099796
141.327577	5382.473599	4.484301	0.005989	4.101938
141.425751	5388.514401	4.489306	0.005969	4.104100
141.497120	5394.483070	4.494310	0.005955	4.106234
141.704671	5400.530808	4.499315	0.005914	4.108405
141.650013	5406.517827	4.504320	0.005923	4.110533
141.988629	5412.512423	4.509325	0.005858	4.112694
142.009725	5418.532396	4.514330	0.005852	4.114837
142.199070	5424.532264	4.519334	0.005815	4.116986
142.220331	5430.539198	4.524339	0.005810	4.119122
142.495126	5436.583239	4.529344	0.005757	4.121291
142.663469	5442.555289	4.534349	0.005724	4.123425
142.796810	5448.582435	4.539354	0.005697	4.125574
142.996929	5454.534276	4.544358	0.005658	4.127701
143.220758	5460.596692	4.549363	0.005615	4.129867
143.285067	5466.571475	4.554368	0.005601	4.131989
143.448742	5472.608957	4.559373	0.005569	4.134140
143.590465	5478.588421	4.564378	0.005541	4.136267
143.776179	5484.615853	4.569382	0.005505	4.138414
143.912929	5490.630137	4.574387	0.005477	4.140551
144.140948	5496.620863	4.579392	0.005433	4.142686
144.356339	5502.637956	4.584397	0.005391	4.144828
144.492808	5508.611405	4.589402	0.005364	4.146947
144.616824	5514.639451	4.594406	0.005339	4.149083
144.773820	5520.657944	4.599411	0.005308	4.151218
144.829010	5526.650150	4.604416	0.005297	4.153334
144.892525	5532.713610	4.609421	0.005283	4.155475
144.908404	5538.648966	4.614426	0.005279	4.157565
145.023675	5544.684887	4.619430	0.005256	4.159698
145.263667	5550.673869	4.624435	0.005209	4.161823
145.390166	5556.702037	4.629440	0.005184	4.163952
145.298904	5562.723303	4.634445	0.005200	4.166061
145.377715	5568.718525	4.639450	0.005183	4.168172
145.403510	5574.721524	4.644454	0.005177	4.170281
145.542663	5580.712109	4.649459	0.005149	4.172393
145.627769	5586.719604	4.654464	0.005132	4.174506
145.926334	5592.712986	4.659469	0.005074	4.176630
146.015268	5598.749914	4.664474	0.005056	4.178751
146.052078	5604.761386	4.669478	0.005048	4.180859
146.104073	5610.749333	4.674483	0.005037	4.182958
146.260808	5616.770649	4.679488	0.005006	4.185076
146.281095	5622.759222	4.684493	0.005000	4.187171
146.301828	5628.806122	4.689498	0.004995	4.189285
146.322942	5634.780881	4.694502	0.004990	4.191373
146.315629	5640.809655	4.699507	0.004989	4.193477
146.555512	5646.770694	4.704512	0.004943	4.195575
146.776300	5652.815167	4.709517	0.004900	4.197699
146.831912	5658.817715	4.714522	0.004888	4.199795
147.001827	5664.824968	4.719526	0.004855	4.201901
147.159168	5670.794127	4.724531	0.004824	4.203991
147.249530	5676.834924	4.729536	0.004805	4.206100
147.166448	5682.872970	4.734541	0.004819	4.208193
147.335757	5688.859374	4.739546	0.004786	4.210287
147.340418	5694.814914	4.744550	0.004784	4.212357
147.397639	5700.883236	4.749555	0.004771	4.214469
147.383910	5706.860437	4.754560	0.004773	4.216542
147.501800	5712.889120	4.759565	0.004749	4.218643
147.613746	5718.870829	4.764570	0.004726	4.220725
147.813055	5724.926510	4.769574	0.004688	4.222839
147.937729	5730.897073	4.774579	0.004663	4.224917
147.908092	5736.894450	4.779584	0.004667	4.226991
148.162625	5742.914782	4.784589	0.004618	4.229094
148.166179	5748.945171	4.789594	0.004615	4.231180
148.362751	5754.911132	4.794598	0.004577	4.233257
148.415760	5760.964728	4.799603	0.004566	4.235353
148.435513	5766.946312	4.804608	0.004560	4.237421
148.486956	5772.948351	4.809613	0.004549	4.239496
148.683429	5778.942617	4.814618	0.004511	4.241579
148.686630	5784.991891	4.819622	0.004509	4.243666
148.787210	5790.953232	4.824627	0.004488	4.245728
148.905625	5796.972558	4.829632	0.004465	4.247811
148.944243	5803.003130	4.834637	0.004456	4.249891
149.083147	5808.985901	4.839642	0.004428	4.251960
149.170594	5814.989145	4.844646	0.004411	4.254032
149.416412	5820.964708	4.849651	0.004363	4.256105
149.621362	5827.032994	4.854656	0.004323	4.258206
149.629023	5833.007918	4.859661	0.004320	4.260259
149.761200	5839.005220	4.864666	0.004294	4.262328
150.013411	5845.066034	4.869670	0.004245	4.264426
150.213556	5851.022816	4.874675	0.004206	4.266484
150.253157	5857.027174	4.879680	0.004197	4.268546
150.477048	5863.057647	4.884685	0.004154	4.270629
150.579708	5869.088071	4.889690	0.004133	4.272702
150.755421	5875.058325	4.894694	0.004098	4.274759
150.790343	5881.071817	4.899699	0.004090	4.276819
151.042835	5887.072558	4.904704	0.004041	4.278890
151.376463	5893.076264	4.909709	0.003977	4.280966
151.667553	5899.116824	4.914714	0.003921	4.283051
151.563732	5905.125256	4.919718	0.003939	4.285096
151.735370	5911.097678	4.924723	0.003906	4.287147
151.976768	5917.137744	4.929728	0.003859	4.289225
152.121234	5923.096247	4.934733	0.003830	4.291268
152.192664	5929.153874	4.939738	0.003815	4.293338
152.330863	5935.109458	4.944742	0.003788	4.295377
152.532371	5941.134214	4.949747	0.003749	4.297443
152.501304	5947.188578	4.954752	0.003753	4.299501
152.727500	5953.154332	4.959757	0.003709	4.301547
152.782306	5959.146631	4.964762	0.003697	4.303588
152.896763	5965.178733	4.969766	0.003674	4.305647
152.955049	5971.164113	4.974771	0.003662	4.307684
153.077589	5977.197571	4.979776	0.003637	4.309741
153.225362	5983.177083	4.984781	0.003608	4.311781
153.383308	5989.209806	4.989786	0.003577	4.313839
153.377366	5995.193614	4.994790	0.003577	4.315867
153.474192	5999.265925	4.999795	0.003557	4.317255
153.604703	5999.437304	5.004800	0.003533	4.317322
153.738759	5999.377597	5.009805	0.003508	4.317311
154.004213	5999.419984	5.014810	0.003458	4.317345
153.819610	5999.469200	5.019814	0.003493	4.317348
153.815580	5999.353962	5.024819	0.003493	4.317309
153.795245	5999.463302	5.029824	0.003497	4.317345
153.731069	5999.378304	5.034829	0.003509	4.317311
153.772243	5999.436845	5.039834	0.003501	4.317334
153.802939	5999.442325	5.044838	0.003496	4.317338
153.772514	5999.372293	5.049843	0.003501	4.317312
153.753750	5999.471165	5.054848	0.003505	4.317344
153.866871	5999.396542	5.059853	0.003484	4.317327
153.939833	5999.351612	5.064858	0.003470	4.317317
154.020938	5999.447769	5.069862	0.003455	4.317355
154.176689	5999.429538	5.074867	0.003426	4.317360
154.021462	5999.452265	5.079872	0.003455	4.317357
154.149426	5999.359758	5.084877	0.003431	4.317335
154.302972	5999.434131	5.089882	0.003402	4.317371
154.097235	5999.375413	5.094886	0.003440	4.317336
154.185523	5999.409241	5.099891	0.003424	4.317354
154.100776	5999.428103	5.104896	0.003440	4.317354
154.037493	5999.447029	5.109901	0.003452	4.317356
153.994129	5999.430411	5.114906	0.003460	4.317348
154.078364	5999.405207	5.119910	0.003444	4.317345
154.114956	5999.375347	5.124915	0.003437	4.317338
154.187355	5999.392268	5.129920	0.003424	4.317349
154.127038	5999.414251	5.134925	0.003435	4.317352
154.246337	5999.428614	5.139930	0.003413	4.317365
154.327630	5999.404955	5.144934	0.003397	4.317363
154.396535	5999.412480	5.149939	0.003384	4.317370
154.485039	5999.398351	5.154944	0.003368	4.317372
154.423013	5999.427145	5.159949	0.003379	4.317377
154.434893	5999.393303	5.164954	0.003377	4.317367
154.419431	5999.415926	5.169958	0.003380	4.317373
154.497850	5999.387346	5.174963	0.003365	4.317369
154.438596	5999.426610	5.179968	0.003376	4.317378
154.503922	5999.413702	5.184973	0.003364	4.317379
154.505628	5999.413341	5.189978	0.003364	4.317379
154.501213	5999.400455	5.194982	0.003365	4.317374
154.381682	5999.421153	5.199987	0.003387	4.317372
154.608971	5999.393306	5.204992	0.003344	4.317379
154.603985	5999.401733	5.209997	0.003345	4.317382
154.735181	5999.403444	5.215002	0.003321	4.317392
154.554066	5999.439021	5.220006	0.003355	4.317391
154.612673	5999.398051	5.225011	0.003344	4.317381
154.493354	5999.423311	5.230016	0.003366	4.317381
154.628661	5999.405723	5.235021	0.003341	4.317385
154.711737	5999.409328	5.240026	0.003325	4.317392
154.804763	5999.410827	5.245030	0.003308	4.317399
154.654253	5999.422419	5.250035	0.003336	4.317392
154.592763	5999.412401	5.255040	0.003348	4.317384
154.471269	5999.406794	5.260045	0.003370	4.317374
154.412392	5999.388853	5.265050	0.003381	4.317364
154.615284	5999.421454	5.270054	0.003343	4.317389
154.535256	5999.397855	5.275059	0.003358	4.317375
154.586423	5999.419272	5.280064	0.003349	4.317386
154.504258	5999.395204	5.285069	0.003364	4.317372
154.671775	5999.404888	5.290074	0.003333	4.317388
154.758578	5999.396648	5.295078	0.003316	4.317391
154.838950	5999.449659	5.300083	0.003301	4.317415
154.857130	5999.404348	5.305088	0.003298	4.317401
154.872773	5999.378002	5.310093	0.003295	4.317393
154.721538	5999.401725	5.315098	0.003323	4.317390
154.762123	5999.406954	5.320102	0.003316	4.317395
154.755267	5999.408405	5.325107	0.003317	4.317395
154.607905	5999.420252	5.330112	0.003345	4.317388
154.629207	5999.402843	5.335117	0.003341	4.317384
154.548244	5999.398791	5.340122	0.003356	4.317377
154.649654	5999.388380	5.345126	0.003337	4.317380
154.611523	5999.404744	5.350131	0.003344	4.317383
154.724756	5999.408415	5.355136	0.003323	4.317393
154.542047	5999.408395	5.360141	0.003357	4.317379
154.729926	5999.388892	5.365146	0.003322	4.317386
154.810462	5999.440948	5.370150	0.003307	4.317410
154.912409	5999.400017	5.375155	0.003288	4.317403
154.771650	5999.441793	5.380160	0.003314	4.317407
154.831233	5999.402459	5.385165	0.003303	4.317398
154.725957	5999.419217	5.390170	0.003323	4.317396
154.873042	5999.432307	5.395174	0.003295	4.317411
154.758639	5999.409534	5.400179	0.003316	4.317395
154.745302	5999.409594	5.405184	0.003319	4.317394
154.732812	5999.405788	5.410189	0.003321	4.317392
154.794679	5999.403748	5.415194	0.003310	4.317396
154.760011	5999.403715	5.420198	0.003316	4.317394
154.776103	5999.416894	5.425203	0.003313	4.317399
154.750486	5999.402046	5.430208	0.003318	4.317392
154.948789	5999.387708	5.435213	0.003281	4.317402
154.817186	5999.403590	5.440218	0.003305	4.317398
154.783021	5999.402530	5.445222	0.003312	4.317395
154.908258	5999.396289	5.450227	0.003288	4.317402
154.947187	5999.385283	5.455232	0.003281	4.317401
154.931954	5999.396801	5.460237	0.003284	4.317404
154.919091	5999.443751	5.465242	0.003286	4.317418
154.880253	5999.432623	5.470246	0.003294	4.317412
154.905784	5999.399577	5.475251	0.003289	4.317403
154.739866	5999.421801	5.480256	0.003320	4.317398
154.850574	5999.392836	5.485261	0.003299	4.317396
154.832489	5999.413250	5.490266	0.003303	4.317402
154.975331	5999.376561	5.495270	0.003276	4.317400
154.905720	5999.391298	5.500275	0.003289	4.317400
154.904162	5999.401763	5.505280	0.003289	4.317403
154.837624	5999.402949	5.510285	0.003302	4.317399
155.025990	5999.388872	5.515290	0.003266	4.317408
154.986500	5999.467258	5.520294	0.003274	4.317431
154.938588	5999.410139	5.525299	0.003283	4.317409
154.940878	5999.413340	5.530304	0.003282	4.317410
155.049279	5999.436462	5.535309	0.003262	4.317425
154.928902	5999.394683	5.540314	0.003284	4.317403
154.963399	5999.392908	5.545318	0.003278	4.317404
154.911355	5999.401161	5.550323	0.003288	4.317404
154.934008	5999.403737	5.555328	0.003283	4.317406
154.937178	5999.390166	5.560333	0.003283	4.317402
154.817957	5999.400663	5.565338	0.003305	4.317397
154.839166	5999.411837	5.570342	0.003301	4.317402
154.870618	5999.390436	5.575347	0.003295	4.317397
155.068838	5999.432322	5.580352	0.003258	4.317425
155.018518	5999.421782	5.585357	0.003268	4.317418
155.014188	5999.434676	5.590362	0.003268	4.317422
155.029400	5999.382622	5.595366	0.003266	4.317406
155.046434	5999.385465	5.600371	0.003262	4.317408
154.985905	5999.408415	5.605376	0.003274	4.317411
154.945690	5999.448255	5.610381	0.003281	4.317422
155.031788	5999.434636	5.615386	0.003265	4.317423
154.897525	5999.395797	5.620390	0.003290	4.317401
154.835536	5999.414448	5.625395	0.003302	4.317403
154.948180	5999.388759	5.630400	0.003281	4.317402
154.874953	5999.390440	5.635405	0.003295	4.317397
154.847761	5999.382375	5.640410	0.003300	4.317393
154.979905	5999.429034	5.645414	0.003275	4.317418
154.906077	5999.413335	5.650419	0.003289	4.317407
155.047085	5999.451669	5.655424	0.003262	4.317430
155.169505	5999.375998	5.660429	0.003239	4.317414
155.246402	5999.373540	5.665434	0.003225	4.317418
155.014465	5999.399604	5.670438	0.003268	4.317410
155.073249	5999.421252	5.675443	0.003257	4.317422
155.003204	5999.442530	5.680448	0.003270	4.317424
155.025387	5999.422170	5.685453	0.003266	4.317419
154.985271	5999.381828	5.690458	0.003274	4.317402
154.998281	5999.375388	5.695462	0.003271	4.317401
155.003600	5999.412961	5.700467	0.003270	4.317414
155.011826	5999.400163	5.705472	0.003269	4.317410
155.006370	5999.434489	5.710477	0.003270	4.317422
155.022472	5999.436608	5.715482	0.003267	4.317423
155.061423	5999.397035	5.720486	0.003260	4.317413
155.110660	5999.381083	5.725491	0.003250	4.317411
154.910535	5999.399492	5.730496	0.003288	4.317403
155.133278	5999.425130	5.735501	0.003246	4.317428
155.043189	5999.441437	5.740506	0.003263	4.317427
155.103347	5999.394610	5.745510	0.003252	4.317415
154.905190	5999.398781	5.750515	0.003289	4.317402
154.961705	5999.398795	5.755520	0.003278	4.317406
155.099129	5999.394581	5.760525	0.003252	4.317415
155.104485	5999.462553	5.765530	0.003251	4.317438
154.980906	5999.379988	5.770534	0.003275	4.317401
155.122507	5999.386868	5.775539	0.003248	4.317414
155.120452	5999.400203	5.780544	0.003248	4.317418
155.225635	5999.458099	5.785549	0.003229	4.317445
155.047718	5999.365844	5.790554	0.003262	4.317401
155.100257	5999.396185	5.795558	0.003252	4.317415
154.991357	5999.404496	5.800563	0.003273	4.317410
155.077337	5999.389059	5.805568	0.003257	4.317411
155.094884	5999.481171	5.810573	0.003253	4.317444
155.158755	5999.354317	5.815578	0.003241	4.317405
155.088271	5999.414386	5.820582	0.003255	4.317421
155.125985	5999.440495	5.825587	0.003247	4.317432
155.013077	5999.417405	5.830592	0.003269	4.317416
155.108457	5999.351143	5.835597	0.003251	4.317401
155.244967	5999.441107	5.840602	0.003225	4.317441
155.226556	5999.396170	5.845606	0.003229	4.317424
155.193332	5999.370954	5.850611	0.003235	4.317414
155.145432	5999.449278	5.855616	0.003244	4.317437
155.128893	5999.414080	5.860621	0.003247	4.317423
155.213408	5999.371311	5.865626	0.003231	4.317415
155.266103	5999.453218	5.870630	0.003221	4.317447
155.319144	5999.367356	5.875635	0.003211	4.317421
155.326955	5999.380445	5.880640	0.003210	4.317426
155.237799	5999.467503	5.885645	0.003226	4.317449
155.151987	5999.389841	5.890650	0.003243	4.317417
155.179902	5999.374718	5.895654	0.003237	4.317414
155.309040	5999.446893	5.900659	0.003213	4.317448
155.195497	5999.370495	5.905664	0.003234	4.317414
155.035715	5999.421827	5.910669	0.003264	4.317419
155.149076	5999.454035	5.915674	0.003243	4.317438
155.161690	5999.365674	5.920678	0.003241	4.317409
155.350155	5999.436347	5.925683	0.003205	4.317447
155.240539	5999.381231	5.930688	0.003226	4.317420
155.361220	5999.375034	5.935693	0.003203	4.317427
155.245305	5999.446564	5.940698	0.003225	4.317443
155.314399	5999.362832	5.945702	0.003212	4.317419
155.286590	5999.455331	5.950707	0.003217	4.317449
155.334283	5999.358622	5.955712	0.003208	4.317419
155.243030	5999.468238	5.960717	0.003225	4.317450
155.321510	5999.359483	5.965722	0.003211	4.317419
155.262506	5999.448451	5.970726	0.003222	4.317445
155.181304	5999.379028	5.975731	0.003237	4.317415
155.216672	5999.448940	5.980736	0.003230	4.317442
155.295142	5999.350323	5.985741	0.003216	4.317414
155.275979	5999.451128	5.990746	0.003219	4.317447
155.334246	5999.352180	5.995750	0.003208	4.317417
155.401086	5999.422801	6.000755	0.003196	4.317446
155.279060	5999.445868	6.005760	0.003219	4.317445
155.335012	5999.362154	6.010765	0.003208	4.317421
155.525025	5999.451850	6.015770	0.003173	4.317465
155.307132	5999.390169	6.020774	0.003213	4.317428
155.396063	5999.423864	6.025779	0.003197	4.317446
155.196707	5999.379453	6.030784	0.003234	4.317417
155.408725	5999.459884	6.035789	0.003194	4.317459
155.364377	5999.378973	6.040794	0.003203	4.317428
155.448029	5999.421157	6.045798	0.003187	4.317449
155.372860	5999.412191	6.050803	0.003201	4.317440
155.344889	5999.410741	6.055808	0.003206	4.317438
155.268541	5999.367011	6.060813	0.003221	4.317418
155.344946	5999.455878	6.065818	0.003206	4.317453
155.327641	5999.362793	6.070822	0.003210	4.317420
155.279328	5999.454104	6.075827	0.003219	4.317448
155.276784	5999.397515	6.080832	0.003219	4.317428
155.350032	5999.374638	6.085837	0.003205	4.317426
155.455996	5999.444349	6.090842	0.003186	4.317457
155.444491	5999.373992	6.095846	0.003188	4.317433
155.413397	5999.438623	6.100851	0.003194	4.317452
155.452581	5999.419272	6.105856	0.003186	4.317448
155.320475	5999.363388	6.110861	0.003211	4.317420
155.431607	5999.459647	6.115866	0.003190	4.317461
155.458894	5999.422542	6.120870	0.003185	4.317450
155.448861	5999.342660	6.125875	0.003187	4.317422
155.482602	5999.423974	6.130880	0.003181	4.317452
155.443507	5999.435014	6.135885	0.003188	4.317453
155.392599	5999.414462	6.140890	0.003197	4.317443
155.491492	5999.375099	6.145894	0.003179	4.317436
155.535013	5999.413800	6.150899	0.003171	4.317453
155.581615	5999.397485	6.155904	0.003162	4.317450
155.508593	5999.416629	6.160909	0.003176	4.317452
155.584791	5999.418927	6.165914	0.003161	4.317458
155.418069	5999.427499	6.170918	0.003193	4.317449
155.506459	5999.393124	6.175923	0.003176	4.317443
155.462445	5999.384012	6.180928	0.003184	4.317437
155.497851	5999.425353	6.185933	0.003178	4.317454
155.463857	5999.397535	6.190938	0.003184	4.317442
155.558428	5999.422665	6.195942	0.003166	4.317457
155.352407	5999.434027	6.200947	0.003205	4.317446
155.475045	5999.427416	6.205952	0.003182	4.317453
155.495715	5999.403691	6.210957	0.003178	4.317446
155.542249	5999.365276	6.215962	0.003169	4.317437
155.471355	5999.396869	6.220966	0.003183	4.317442
155.698375	5999.415155	6.225971	0.003140	4.317465
155.591674	5999.418392	6.230976	0.003160	4.317458
155.701677	5999.421827	6.235981	0.003139	4.317467
155.611643	5999.404029	6.240986	0.003156	4.317455
155.664746	5999.415823	6.245990	0.003146	4.317463
155.666868	5999.394181	6.250995	0.003146	4.317455
155.629900	5999.433336	6.256000	0.003153	4.317466
155.701435	5999.403450	6.261005	0.003139	4.317461
155.655276	5999.381892	6.266010	0.003148	4.317450
155.500469	5999.374120	6.271014	0.003177	4.317437
155.563383	5999.428066	6.276019	0.003165	4.317459
155.612917	5999.406523	6.281024	0.003156	4.317456
155.628188	5999.422641	6.286029	0.003153	4.317462
155.589117	5999.418011	6.291034	0.003161	4.317458
155.652430	5999.433173	6.296038	0.003149	4.317468
155.448461	5999.389737	6.301043	0.003187	4.317438
155.551439	5999.399266	6.306048	0.003168	4.317449
155.648261	5999.412863	6.311053	0.003149	4.317460
155.704271	5999.428649	6.316058	0.003139	4.317470
155.445221	5999.386737	6.321062	0.003188	4.317437
155.661174	5999.376958	6.326067	0.003147	4.317449
155.428439	5999.434518	6.331072	0.003191	4.317452
155.628729	5999.424369	6.336077	0.003153	4.317463
155.580336	5999.416185	6.341082	0.003162	4.317457
155.490712	5999.429628	6.346086	0.003179	4.317455
155.573879	5999.413866	6.351091	0.003163	4.317455
155.589829	5999.391140	6.356096	0.003160	4.317449
155.517393	5999.381595	6.361101	0.003174	4.317440
155.696277	5999.394406	6.366106	0.003140	4.317458
155.737722	5999.444604	6.371110	0.003133	4.317478
155.714069	5999.409068	6.376115	0.003137	4.317464
155.657316	5999.397125	6.381120	0.003148	4.317456
155.587497	5999.404533	6.386125	0.003161	4.317453
155.640917	5999.440218	6.391130	0.003151	4.317469
155.609978	5999.328825	6.396134	0.003157	4.317429
155.538974	5999.413883	6.401139	0.003170	4.317453
155.557530	5999.450498	6.406144	0.003166	4.317467
155.536004	5999.428333	6.411149	0.003171	4.317458
155.666640	5999.423715	6.416154	0.003146	4.317465
155.537642	5999.401265	6.421158	0.003170	4.317448
155.474246	5999.351108	6.426163	0.003182	4.317427
155.479942	5999.430065	6.431168	0.003181	4.317454
155.545495	5999.394996	6.436173	0.003169	4.317447
155.564923	5999.411155	6.441178	0.003165	4.317454
155.685356	5999.432653	6.446182	0.003142	4.317470
155.642375	5999.408580	6.451187	0.003151	4.317458
155.730324	5999.415763	6.456192	0.003134	4.317467
155.723254	5999.387774	6.461197	0.003135	4.317457
155.741934	5999.416991	6.466202	0.003132	4.317468
155.600366	5999.404573	6.471206	0.003158	4.317454
155.707503	5999.429808	6.476211	0.003138	4.317470
155.625072	5999.410400	6.481216	0.003154	4.317458
155.640933	5999.334250	6.486221	0.003151	4.317433
155.661293	5999.457097	6.491226	0.003147	4.317476
155.671189	5999.348117	6.496230	0.003145	4.317440
155.588784	5999.419003	6.501235	0.003161	4.317458
155.651961	5999.412080	6.506240	0.003149	4.317460
155.703541	5999.391025	6.511245	0.003139	4.317457
155.707259	5999.422488	6.516250	0.003138	4.317468
155.664209	5999.399351	6.521254	0.003146	4.317457
155.577145	5999.445424	6.526259	0.003163	4.317466
155.622693	5999.398004	6.531264	0.003154	4.317453
155.627468	5999.419107	6.536269	0.003153	4.317461
155.674762	5999.400803	6.541274	0.003144	4.317458
155.696210	5999.358484	6.546278	0.003140	4.317445
155.678790	5999.409165	6.551283	0.003144	4.317461
155.674641	5999.406357	6.556288	0.003144	4.317460
155.413409	5999.458892	6.561293	0.003194	4.317459
155.577273	5999.338512	6.566298	0.003163	4.317430
155.634096	5999.410333	6.571302	0.003152	4.317458
155.642298	5999.439925	6.576307	0.003151	4.317469
155.547773	5999.419392	6.581312	0.003168	4.317455
155.612382	5999.429672	6.586317	0.003156	4.317463
155.524090	5999.355299	6.591322	0.003173	4.317432
155.875245	5999.394300	6.596326	0.003107	4.317470
155.710370	5999.409851	6.601331	0.003138	4.317464
155.805425	5999.424744	6.606336	0.003120	4.317476
155.680082	5999.418106	6.611341	0.003143	4.317464
155.630862	5999.393510	6.616346	0.003153	4.317453
155.729119	5999.417861	6.621350	0.003134	4.317468
155.814279	5999.388777	6.626355	0.003118	4.317464
155.640249	5999.399816	6.631360	0.003151	4.317455
155.753596	5999.415444	6.636365	0.003130	4.317469
155.574202	5999.402740	6.641370	0.003163	4.317452
155.587647	5999.404501	6.646374	0.003161	4.317453
155.726168	5999.403743	6.651379	0.003135	4.317463
155.864095	5999.404953	6.656384	0.003109	4.317473
155.746384	5999.379192	6.661389	0.003131	4.317456
155.940808	5999.366600	6.666394	0.003095	4.317466
155.840928	5999.464222	6.671398	0.003113	4.317492
155.992073	5999.367726	6.676403	0.003085	4.317470
155.901027	5999.439521	6.681408	0.003102	4.317487
155.894898	5999.407647	6.686413	0.003103	4.317476
155.610991	5999.388503	6.691418	0.003156	4.317449
155.866500	5999.407208	6.696422	0.003108	4.317474
155.712181	5999.386432	6.701427	0.003137	4.317456
155.818648	5999.375873	6.706432	0.003117	4.317460
155.960453	5999.435235	6.711437	0.003091	4.317490
155.972374	5999.372818	6.716442	0.003089	4.317470
155.782968	5999.472805	6.721446	0.003124	4.317490
155.892143	5999.389801	6.726451	0.003104	4.317470
155.851155	5999.449157	6.731456	0.003111	4.317487
155.915674	5999.377449	6.736461	0.003099	4.317468
155.871877	5999.405149	6.741466	0.003107	4.317474
156.003908	5999.419586	6.746470	0.003083	4.317488
155.890262	5999.443643	6.751475	0.003104	4.317488
155.862243	5999.392445	6.756480	0.003109	4.317469
155.679738	5999.397907	6.761485	0.003144	4.317458
155.752785	5999.413773	6.766490	0.003130	4.317468
155.779834	5999.375797	6.771494	0.003125	4.317457
155.766010	5999.395309	6.776499	0.003127	4.317463
155.690194	5999.386479	6.781504	0.003142	4.317454
155.699534	5999.408459	6.786509	0.003140	4.317463
155.707528	5999.464817	6.791514	0.003138	4.317482
155.695904	5999.346570	6.796518	0.003141	4.317441
155.709220	5999.485652	6.801523	0.003138	4.317489
155.820381	5999.396699	6.806528	0.003117	4.317467
155.797592	5999.373880	6.811533	0.003121	4.317458
155.906746	5999.405139	6.816538	0.003101	4.317476
155.772605	5999.389306	6.821542	0.003126	4.317461
155.989682	5999.374683	6.826547	0.003085	4.317472
155.854065	5999.462362	6.831552	0.003111	4.317492
155.925401	5999.389211	6.836557	0.003097	4.317472
155.881211	5999.441873	6.841562	0.003106	4.317487
155.823840	5999.400574	6.846566	0.003117	4.317469
155.897037	5999.357437	6.851571	0.003103	4.317459
155.740072	5999.411857	6.856576	0.003132	4.317467
155.748099	5999.391729	6.861581	0.003131	4.317460
155.881579	5999.392038	6.866586	0.003106	4.317470
155.843329	5999.469242	6.871590	0.003113	4.317493
155.807061	5999.406890	6.876595	0.003120	4.317470
155.769788	5999.393587	6.881600	0.003127	4.317463
155.981303	5999.378299	6.886605	0.003087	4.317473
156.013892	5999.421159	6.891610	0.003081	4.317489
156.043553	5999.383551	6.896614	0.003075	4.317479
155.819508	5999.395963	6.901619	0.003117	4.317467
155.851585	5999.455516	6.906624	0.003111	4.317489
155.832064	5999.364740	6.911629	0.003115	4.317457
155.867051	5999.381292	6.916634	0.003108	4.317465
155.811207	5999.458535	6.921638	0.003119	4.317487
155.864608	5999.410373	6.926643	0.003109	4.317475
155.752699	5999.368641	6.931648	0.003130	4.317453
155.785817	5999.409544	6.936653	0.003124	4.317469
155.772170	5999.408748	6.941658	0.003126	4.317468
155.939867	5999.436828	6.946662	0.003095	4.317489
156.012081	5999.424306	6.951667	0.003081	4.317490
156.115008	5999.355525	6.956672	0.003062	4.317474
155.973366	5999.438030	6.961677	0.003088	4.317492
155.904547	5999.372433	6.966682	0.003101	4.317465
155.939297	5999.433263	6.971686	0.003095	4.317488
155.965280	5999.372477	6.976691	0.003090	4.317469
156.001509	5999.430230	6.981696	0.003083	4.317492
156.121739	5999.425973	6.986701	0.003061	4.317499
155.949594	5999.360133	6.991706	0.003093	4.317464
155.958333	5999.460563	6.996710	0.003091	4.317499
155.985772	5999.365375	7.001715	0.003086	4.317468
156.172497	5999.419836	7.006720	0.003051	4.317500
156.106480	5999.402481	7.011725	0.003063	4.317490
155.936716	5999.374838	7.016730	0.003095	4.317468
155.996599	5999.432191	7.021734	0.003084	4.317492
156.178236	5999.417700	7.026739	0.003050	4.317500
156.117223	5999.410343	7.031744	0.003061	4.317493
156.169609	5999.402018	7.036749	0.003052	4.317494
156.052702	5999.365028	7.041754	0.003074	4.317473
156.155712	5999.432603	7.046758	0.003054	4.317503
155.934259	5999.431565	7.051763	0.003096	4.317487
155.983971	5999.402613	7.056768	0.003086	4.317481
155.959914	5999.360712	7.061773	0.003091	4.317465
155.991214	5999.388180	7.066778	0.003085	4.317477
156.043443	5999.429646	7.071782	0.003075	4.317494
156.039064	5999.413987	7.076787	0.003076	4.317489
155.898368	5999.403227	7.081792	0.003103	4.317475
155.974057	5999.394576	7.086797	0.003088	4.317478
156.003877	5999.408535	7.091802	0.003083	4.317484
156.175219	5999.421103	7.096806	0.003051	4.317501
156.009255	5999.428590	7.101811	0.003082	4.317492
156.211795	5999.405067	7.106816	0.003044	4.317498
156.107985	5999.407691	7.111821	0.003063	4.317492
156.175170	5999.418348	7.116826	0.003051	4.317500
155.935224	5999.362253	7.121830	0.003096	4.317464
156.127384	5999.430307	7.126835	0.003060	4.317501
155.957515	5999.437700	7.131840	0.003091	4.317491
156.129289	5999.351581	7.136845	0.003059	4.317474
155.953440	5999.455148	7.141850	0.003092	4.317497
156.116231	5999.361716	7.146854	0.003062	4.317477
156.140517	5999.402648	7.151859	0.003057	4.317492
156.149403	5999.431174	7.156864	0.003055	4.317502
156.072084	5999.426348	7.161869	0.003070	4.317495
156.325184	5999.386594	7.166874	0.003022	4.317500
156.109517	5999.413817	7.171878	0.003063	4.317494
156.122155	5999.359541	7.176883	0.003061	4.317476
156.029670	5999.442698	7.181888	0.003078	4.317498
156.140472	5999.370407	7.186893	0.003057	4.317481
156.021862	5999.432372	7.191898	0.003079	4.317494
156.061454	5999.372390	7.196902	0.003072	4.317476
155.960244	5999.452787	7.201907	0.003091	4.317496
156.096256	5999.371473	7.206912	0.003065	4.317478
156.094669	5999.416038	7.211917	0.003066	4.317493
156.135169	5999.389958	7.216922	0.003058	4.317487
156.077422	5999.387439	7.221926	0.003069	4.317482
156.122341	5999.435060	7.226931	0.003060	4.317502
156.087101	5999.374333	7.231936	0.003067	4.317479
156.237968	5999.382941	7.236941	0.003039	4.317492
156.116407	5999.464881	7.241946	0.003062	4.317512
156.170094	5999.384408	7.246950	0.003052	4.317488
156.126256	5999.425938	7.251955	0.003060	4.317499
156.101134	5999.353855	7.256960	0.003064	4.317473
156.044070	5999.432278	7.261965	0.003075	4.317495
156.038307	5999.384661	7.266970	0.003076	4.317479
155.935649	5999.414685	7.271974	0.003096	4.317482
156.138439	5999.423359	7.276979	0.003057	4.317499
156.138013	5999.404099	7.281984	0.003058	4.317492
156.125027	5999.424356	7.286989	0.003060	4.317498
156.027164	5999.347398	7.291994	0.003078	4.317465
156.127620	5999.429335	7.296998	0.003059	4.317500
155.984478	5999.430149	7.302003	0.003086	4.317490
156.105077	5999.353020	7.307008	0.003064	4.317473
156.017575	5999.430515	7.312013	0.003080	4.317493
156.045870	5999.381218	7.317018	0.003075	4.317478
156.006358	5999.415382	7.322022	0.003082	4.317487
156.068517	5999.432632	7.327027	0.003071	4.317497
156.204952	5999.387165	7.332032	0.003045	4.317492
156.184961	5999.411669	7.337037	0.003049	4.317498
156.124345	5999.411600	7.342042	0.003060	4.317494
156.237667	5999.404198	7.347046	0.003039	4.317500
156.189225	5999.406159	7.352051	0.003048	4.317497
156.208219	5999.411353	7.357056	0.003044	4.317500
156.157345	5999.416593	7.362061	0.003054	4.317498
156.299734	5999.410410	7.367066	0.003027	4.317506
156.241890	5999.385796	7.372070	0.003038	4.317494
156.311434	5999.392269	7.377075	0.003025	4.317501
156.251643	5999.390182	7.382080	0.003036	4.317496
156.134470	5999.426964	7.387085	0.003058	4.317500
156.305077	5999.375185	7.392090	0.003026	4.317495
156.232262	5999.409949	7.397094	0.003040	4.317501
156.082945	5999.423127	7.402099	0.003068	4.317495
156.200312	5999.350368	7.407104	0.003046	4.317479
156.247605	5999.403937	7.412109	0.003037	4.317500
156.274500	5999.415752	7.417114	0.003032	4.317506
156.260679	5999.388269	7.422118	0.003035	4.317496
156.144855	5999.432137	7.427123	0.003056	4.317502
156.253309	5999.393515	7.432128	0.003036	4.317497
156.244279	5999.348433	7.437133	0.003038	4.317481
156.277930	5999.399361	7.442138	0.003031	4.317501
156.359231	5999.406109	7.447142	0.003016	4.317509
156.287795	5999.389901	7.452147	0.003029	4.317498
156.340048	5999.406484	7.457152	0.003020	4.317508
156.193784	5999.413487	7.462157	0.003047	4.317500
156.222800	5999.413795	7.467162	0.003042	4.317502
156.194469	5999.399520	7.472166	0.003047	4.317495
156.252869	5999.406509	7.477171	0.003036	4.317502
156.144456	5999.419321	7.482176	0.003056	4.317498
156.198860	5999.361733	7.487181	0.003046	4.317482
156.166153	5999.398142	7.492186	0.003052	4.317492
156.254099	5999.402562	7.497190	0.003036	4.317500
156.287995	5999.388937	7.502195	0.003029	4.317498
156.260643	5999.413156	7.507200	0.003035	4.317504
156.271437	5999.394285	7.512205	0.003033	4.317499
156.270768	5999.413777	7.517210	0.003033	4.317505
156.142088	5999.418901	7.522214	0.003057	4.317498
156.241092	5999.338050	7.527219	0.003038	4.317478
156.258663	5999.404361	7.532224	0.003035	4.317501
156.271591	5999.428346	7.537229	0.003032	4.317510
156.129032	5999.417979	7.542234	0.003059	4.317497
156.134815	5999.372526	7.547238	0.003058	4.317482
156.203702	5999.411388	7.552243	0.003045	4.317500
156.331580	5999.398140	7.557248	0.003021	4.317504
156.177123	5999.349748	7.562253	0.003050	4.317477
156.234537	5999.426975	7.567258	0.003039	4.317507
156.222693	5999.403682	7.572262	0.003042	4.317498
156.257984	5999.359353	7.577267	0.003035	4.317486
156.257189	5999.400987	7.582272	0.003035	4.317500
156.454115	5999.390631	7.587277	0.002998	4.317511
156.322803	5999.393548	7.592282	0.003023	4.317502
156.344451	5999.411080	7.597286	0.003019	4.317510
156.126221	5999.430553	7.602291	0.003060	4.317501
156.310025	5999.371374	7.607296	0.003025	4.317494
156.282256	5999.423324	7.612301	0.003030	4.317509
156.447298	5999.375488	7.617306	0.003000	4.317505
156.354259	5999.373989	7.622310	0.003017	4.317498
156.293142	5999.409041	7.627315	0.003028	4.317505
156.304918	5999.389962	7.632320	0.003026	4.317500
156.490857	5999.382854	7.637325	0.002991	4.317511
156.258366	5999.483669	7.642330	0.003035	4.317528
156.323920	5999.391469	7.647334	0.003023	4.317502
156.353938	5999.368528	7.652339	0.003017	4.317496
156.461396	5999.377111	7.657344	0.002997	4.317507
156.304197	5999.399329	7.662349	0.003026	4.317503
156.448381	5999.434233	7.667354	0.002999	4.317525
156.456667	5999.370741	7.672358	0.002998	4.317504
156.526573	5999.427817	7.677363	0.002985	4.317528
156.300410	5999.392759	7.682368	0.003027	4.317500
156.409368	5999.377988	7.687373	0.003007	4.317503
156.310104	5999.469031	7.692378	0.003025	4.317527
156.390133	5999.375610	7.697382	0.003010	4.317501
156.362205	5999.393501	7.702387	0.003015	4.317505
156.522667	5999.383493	7.707392	0.002985	4.317513
156.399080	5999.377402	7.712397	0.003009	4.317502
156.511371	5999.434721	7.717402	0.002987	4.317530
156.463097	5999.346343	7.722406	0.002997	4.317496
156.555613	5999.421670	7.727411	0.002979	4.317528
156.520514	5999.433707	7.732416	0.002986	4.317530
156.601381	5999.342873	7.737421	0.002971	4.317505
156.349233	5999.402697	7.742426	0.003018	4.317507
156.448225	5999.441637	7.747430	0.002999	4.317527
156.480460	5999.371233	7.752435	0.002993	4.317506
156.522952	5999.381589	7.757440	0.002985	4.317512
156.340658	5999.399905	7.762445	0.003020	4.317506
156.347791	5999.426960	7.767450	0.003018	4.317515
156.343137	5999.397537	7.772454	0.003019	4.317505
156.517153	5999.387424	7.777459	0.002986	4.317514
156.419417	5999.382312	7.782464	0.003005	4.317505
156.535582	5999.379837	7.787469	0.002983	4.317513
156.517487	5999.439877	7.792474	0.002986	4.317532
156.447446	5999.381907	7.797478	0.002999	4.317507
156.434829	5999.397478	7.802483	0.003002	4.317512
156.503111	5999.387632	7.807488	0.002989	4.317513
156.452940	5999.379823	7.812493	0.002998	4.317507
156.545403	5999.389737	7.817498	0.002981	4.317517
156.461494	5999.448043	7.822502	0.002997	4.317531
156.454284	5999.390596	7.827507	0.002998	4.317511
156.455649	5999.356213	7.832512	0.002998	4.317499
156.556768	5999.408525	7.837517	0.002979	4.317524
156.484435	5999.410014	7.842522	0.002993	4.317519
156.465753	5999.397383	7.847526	0.002996	4.317514
156.524370	5999.353645	7.852531	0.002985	4.317503
156.501838	5999.394352	7.857536	0.002989	4.317515
156.516782	5999.419754	7.862541	0.002986	4.317525
156.505021	5999.373406	7.867546	0.002989	4.317508
156.509366	5999.368800	7.872550	0.002988	4.317507
156.555828	5999.443740	7.877555	0.002979	4.317536
156.537184	5999.358305	7.882560	0.002983	4.317506
156.447511	5999.393872	7.887565	0.002999	4.317511
156.470581	5999.437827	7.892570	0.002995	4.317528
156.585277	5999.344438	7.897574	0.002974	4.317504
156.379907	5999.466235	7.902579	0.003012	4.317531
156.423828	5999.344520	7.907584	0.003004	4.317493
156.451484	5999.390267	7.912589	0.002999	4.317510
156.643458	5999.434406	7.917594	0.002963	4.317539
156.604699	5999.338484	7.922598	0.002970	4.317504
156.542099	5999.442960	7.927603	0.002982	4.317535
156.546306	5999.421797	7.932608	0.002981	4.317528
156.595112	5999.343278	7.937613	0.002972	4.317505
156.655944	5999.396747	7.942618	0.002960	4.317527
156.560112	5999.425325	7.947622	0.002978	4.317530
156.565348	5999.351421	7.952627	0.002977	4.317505
156.759409	5999.409862	7.957632	0.002941	4.317539
156.572776	5999.403294	7.962637	0.002976	4.317523
156.609347	5999.364223	7.967642	0.002969	4.317513
156.582221	5999.441839	7.972646	0.002974	4.317537
156.642398	5999.350777	7.977651	0.002963	4.317511
156.551584	5999.399487	7.982656	0.002980	4.317521
156.572224	5999.381296	7.987661	0.002976	4.317516
156.544808	5999.434094	7.992666	0.002981	4.317532
156.575023	5999.370567	7.997670	0.002976	4.317512
156.476598	5999.451296	8.002675	0.002994	4.317533
156.642550	5999.348902	8.007680	0.002963	4.317510
156.671408	5999.411903	8.012685	0.002957	4.317533
156.650151	5999.415481	8.017690	0.002961	4.317533
156.430727	5999.376232	8.022694	0.003003	4.317504
156.608195	5999.368153	8.027699	0.002969	4.317514
156.402631	5999.459581	8.032704	0.003008	4.317530
156.557731	5999.395421	8.037709	0.002979	4.317520
156.509197	5999.363307	8.042714	0.002988	4.317505
156.608378	5999.384700	8.047718	0.002969	4.317520
156.495003	5999.370919	8.052723	0.002991	4.317507
156.587646	5999.433319	8.057728	0.002973	4.317535
156.453362	5999.367754	8.062733	0.002998	4.317503
156.487530	5999.381715	8.067738	0.002992	4.317510
156.460294	5999.453826	8.072742	0.002997	4.317532
156.574768	5999.339291	8.077747	0.002976	4.317502
156.496341	5999.430531	8.082752	0.002990	4.317527
156.670958	5999.376061	8.087757	0.002958	4.317521
156.441957	5999.379383	8.092762	0.003001	4.317506
156.607750	5999.419849	8.097766	0.002969	4.317532
156.583447	5999.354962	8.102771	0.002974	4.317508
156.734527	5999.392092	8.107776	0.002946	4.317531
156.614622	5999.423002	8.112781	0.002968	4.317533
156.630553	5999.404886	8.117786	0.002965	4.317528
156.698671	5999.361902	8.122790	0.002952	4.317518
156.634229	5999.414244	8.127795	0.002964	4.317532
156.501798	5999.358423	8.132800	0.002989	4.317503
156.756718	5999.394767	8.137805	0.002941	4.317534
156.616634	5999.422576	8.142810	0.002968	4.317533
156.639762	5999.410308	8.147814	0.002963	4.317531
156.673096	5999.406017	8.152819	0.002957	4.317532
156.745458	5999.338176	8.157824	0.002944	4.317514
156.704584	5999.402116	8.162829	0.002951	4.317532
156.845223	5999.397227	8.167834	0.002925	4.317541
156.736182	5999.408328	8.172838	0.002945	4.317537
156.733236	5999.402502	8.177843	0.002946	4.317535
156.807546	5999.313976	8.182848	0.002932	4.317510
156.779993	5999.394447	8.187853	0.002937	4.317535
156.626177	5999.423320	8.192858	0.002966	4.317534
156.702539	5999.409921	8.197862	0.002952	4.317535
156.817488	5999.379139	8.202867	0.002930	4.317533
156.844529	5999.373415	8.207872	0.002925	4.317533
156.799988	5999.381922	8.212877	0.002933	4.317532
156.772764	5999.383077	8.217882	0.002938	4.317531
156.756630	5999.387413	8.222886	0.002941	4.317531
156.831282	5999.379905	8.227891	0.002927	4.317534
156.651868	5999.414196	8.232896	0.002961	4.317533
157.029546	5999.346232	8.237901	0.002890	4.317537
156.872493	5999.373025	8.242906	0.002920	4.317535
156.838646	5999.367289	8.247910	0.002926	4.317530
156.808962	5999.385551	8.252915	0.002932	4.317534
156.914682	5999.458085	8.257920	0.002912	4.317566
157.022157	5999.333052	8.262925	0.002892	4.317532
157.002711	5999.414572	8.267930	0.002895	4.317558
156.981857	5999.437416	8.272934	0.002899	4.317564
156.951734	5999.345194	8.277939	0.002905	4.317531
157.006318	5999.419338	8.282944	0.002895	4.317560
157.008013	5999.428194	8.287949	0.002894	4.317563
156.908727	5999.370884	8.292954	0.002913	4.317537
156.969435	5999.334997	8.297958	0.002902	4.317529
156.968162	5999.465195	8.302963	0.002902	4.317573
156.906642	5999.354739	8.307968	0.002913	4.317531
156.962940	5999.440499	8.312973	0.002903	4.317564
156.956582	5999.343246	8.317978	0.002904	4.317531
157.123522	5999.420331	8.322982	0.002873	4.317569
157.039719	5999.334863	8.327987	0.002888	4.317534
156.960014	5999.421767	8.332992	0.002903	4.317557
156.986409	5999.373792	8.337997	0.002898	4.317543
157.006332	5999.425785	8.343002	0.002895	4.317562
157.083663	5999.402045	8.348006	0.002880	4.317560
157.059939	5999.410752	8.353011	0.002885	4.317561
157.075315	5999.412105	8.358016	0.002882	4.317562
157.215675	5999.391610	8.363021	0.002855	4.317566
157.165761	5999.361630	8.368026	0.002865	4.317552
156.920650	5999.444843	8.373030	0.002911	4.317562
157.116264	5999.385008	8.378035	0.002874	4.317556
157.245747	5999.372344	8.383040	0.002850	4.317561
157.179686	5999.378955	8.388045	0.002862	4.317559
157.209916	5999.478528	8.393050	0.002856	4.317595
157.274623	5999.369918	8.398054	0.002844	4.317562
157.244410	5999.380921	8.403059	0.002850	4.317564
157.235280	5999.461180	8.408064	0.002852	4.317591
157.058915	5999.433085	8.413069	0.002885	4.317568
157.257514	5999.372618	8.418074	0.002847	4.317562
157.164799	5999.406065	8.423078	0.002865	4.317567
157.214196	5999.384552	8.428083	0.002856	4.317563
157.176403	5999.396237	8.433088	0.002863	4.317564
157.167581	5999.390732	8.438093	0.002864	4.317562
157.196673	5999.390104	8.443098	0.002859	4.317564
157.246106	5999.371347	8.448102	0.002850	4.317561
157.231965	5999.397377	8.453107	0.002852	4.317569
157.231628	5999.465639	8.458112	0.002852	4.317592
157.269966	5999.372747	8.463117	0.002845	4.317563
157.360165	5999.438432	8.468122	0.002828	4.317592
157.316242	5999.372167	8.473126	0.002836	4.317566
157.313770	5999.364397	8.478131	0.002837	4.317563
157.321578	5999.458579	8.483136	0.002835	4.317596
157.241072	5999.368726	8.488141	0.002851	4.317560
157.407558	5999.447752	8.493146	0.002819	4.317598
157.346240	5999.337251	8.498150	0.002831	4.317556
157.259815	5999.478103	8.503155	0.002847	4.317598
157.371132	5999.340276	8.508160	0.002826	4.317559
157.410694	5999.437874	8.513165	0.002819	4.317595
157.364263	5999.363845	8.518170	0.002827	4.317567
157.495868	5999.398651	8.523174	0.002803	4.317588
157.490243	5999.400763	8.528179	0.002804	4.317588
157.362067	5999.454617	8.533184	0.002828	4.317597
157.499780	5999.317653	8.538189	0.002802	4.317561
157.358002	5999.449948	8.543194	0.002829	4.317596
157.466996	5999.429643	8.548198	0.002808	4.317596
157.443797	5999.340560	8.553203	0.002813	4.317565
157.521254	5999.420923	8.558208	0.002798	4.317597
157.451670	5999.449474	8.563213	0.002811	4.317602
157.512058	5999.319661	8.568218	0.002800	4.317562
157.517957	5999.437286	8.573223	0.002799	4.317603
157.504409	5999.422645	8.578227	0.002801	4.317597
157.523800	5999.385367	8.583232	0.002798	4.317586
157.649511	5999.403912	8.588237	0.002774	4.317601
157.708471	5999.415392	8.593242	0.002763	4.317609
157.685644	5999.379677	8.598247	0.002767	4.317595
157.825407	5999.445011	8.603251	0.002741	4.317627
157.877856	5999.371246	8.608256	0.002731	4.317606
157.834173	5999.386943	8.613261	0.002739	4.317608
157.812285	5999.380517	8.618266	0.002743	4.317605
157.883825	5999.475036	8.623271	0.002730	4.317642
158.025738	5999.341789	8.628275	0.002703	4.317607
157.916528	5999.454291	8.633280	0.002724	4.317637
158.020964	5999.374131	8.638285	0.002704	4.317617
157.969333	5999.386902	8.643290	0.002714	4.317618
158.001985	5999.436204	8.648295	0.002708	4.317637
158.022137	5999.394156	8.653299	0.002704	4.317624
158.116519	5999.389845	8.658304	0.002686	4.317630
157.920969	5999.445058	8.663309	0.002723	4.317634
158.025482	5999.346451	8.668314	0.002703	4.317608
158.045323	5999.462970	8.673319	0.002700	4.317649
158.034681	5999.381364	8.678323	0.002702	4.317621
158.114960	5999.411370	8.683328	0.002687	4.317637
158.091627	5999.448562	8.688333	0.002691	4.317648
158.055702	5999.367700	8.693338	0.002698	4.317618
157.986827	5999.425589	8.698343	0.002711	4.317632
157.957378	5999.416156	8.703347	0.002716	4.317627
158.062537	5999.349666	8.708352	0.002696	4.317612
158.035240	5999.462340	8.713357	0.002702	4.317648
158.068993	5999.387003	8.718362	0.002695	4.317625
158.144196	5999.419927	8.723367	0.002681	4.317642
158.233703	5999.433236	8.728371	0.002664	4.317653
158.127821	5999.350592	8.733376	0.002684	4.317617
158.298416	5999.431519	8.738381	0.002652	4.317657
158.117166	5999.404453	8.743386	0.002686	4.317635
158.241204	5999.392944	8.748391	0.002663	4.317640
158.179822	5999.459385	8.753395	0.002674	4.317658
158.133641	5999.345674	8.758400	0.002683	4.317616
158.253495	5999.449321	8.763405	0.002661	4.317660
158.337783	5999.430559	8.768410	0.002645	4.317659
158.266983	5999.398546	8.773415	0.002658	4.317643
158.268024	5999.363308	8.778419	0.002658	4.317631
158.182090	5999.454297	8.783424	0.002674	4.317656
158.160377	5999.401758	8.788429	0.002678	4.317637
158.189868	5999.399202	8.793434	0.002673	4.317638
158.280368	5999.440868	8.798439	0.002656	4.317659
158.192199	5999.344338	8.803443	0.002672	4.317620
158.275312	5999.428115	8.808448	0.002657	4.317654
158.228249	5999.453742	8.813453	0.002665	4.317659
158.139030	5999.347298	8.818458	0.002682	4.317617
158.172616	5999.423127	8.823463	0.002676	4.317645
158.207681	5999.436900	8.828467	0.002669	4.317652
158.232148	5999.427114	8.833472	0.002665	4.317650
158.285169	5999.358757	8.838477	0.002655	4.317631
158.256000	5999.469064	8.843482	0.002660	4.317666
158.248688	5999.383066	8.848487	0.002662	4.317637
158.280753	5999.367986	8.853491	0.002655	4.317634
158.197746	5999.450062	8.858496	0.002671	4.317656
158.219025	5999.385658	8.863501	0.002667	4.317635
158.234290	5999.414681	8.868506	0.002664	4.317646
158.159210	5999.449003	8.873511	0.002678	4.317653
158.219741	5999.323765	8.878515	0.002667	4.317615
158.321054	5999.455295	8.883520	0.002648	4.317666
158.453008	5999.429210	8.888525	0.002623	4.317667
158.368193	5999.425966	8.893530	0.002639	4.317660
158.232268	5999.345994	8.898535	0.002665	4.317623
158.196677	5999.466875	8.903539	0.002671	4.317661
158.303934	5999.394411	8.908544	0.002651	4.317645
158.268828	5999.357608	8.913549	0.002658	4.317630
158.412843	5999.416516	8.918554	0.002631	4.317660
158.236130	5999.463133	8.923559	0.002664	4.317663
158.342818	5999.410141	8.928563	0.002644	4.317653
158.344506	5999.364629	8.933568	0.002644	4.317637
158.373709	5999.442308	8.938573	0.002638	4.317666
158.463663	5999.400230	8.943578	0.002621	4.317658
158.443099	5999.376015	8.948583	0.002625	4.317648
158.437179	5999.412287	8.953587	0.002626	4.317660
158.366257	5999.450336	8.958592	0.002639	4.317668
158.406157	5999.400422	8.963597	0.002632	4.317654
158.415281	5999.369001	8.968602	0.002630	4.317644
158.675129	5999.421825	8.973607	0.002581	4.317680
158.479372	5999.407964	8.978611	0.002618	4.317662
158.547006	5999.440648	8.983616	0.002606	4.317678
158.465855	5999.428334	8.988621	0.002621	4.317668
158.457398	5999.417222	8.993626	0.002622	4.317663
158.406378	5999.403140	8.998631	0.002632	4.317655
158.456431	5999.401761	9.003635	0.002623	4.317658
158.548089	5999.375911	9.008640	0.002605	4.317656
158.526348	5999.425668	9.013645	0.002609	4.317671
158.596306	5999.423763	9.018650	0.002596	4.317675
158.551583	5999.439679	9.023655	0.002605	4.317678
158.520778	5999.430533	9.028659	0.002610	4.317672
158.556797	5999.396185	9.033664	0.002604	4.317663
158.538783	5999.409213	9.038669	0.002607	4.317666
158.419639	5999.371765	9.043674	0.002629	4.317645
158.459638	5999.406611	9.048679	0.002622	4.317660
158.558859	5999.412336	9.053683	0.002603	4.317669
158.523485	5999.420744	9.058688	0.002610	4.317669
158.526606	5999.434829	9.063693	0.002609	4.317674
158.450623	5999.426950	9.068698	0.002624	4.317666
158.432985	5999.433448	9.073703	0.002627	4.317667
158.370979	5999.437356	9.078707	0.002639	4.317664
158.496183	5999.387818	9.083712	0.002615	4.317656
158.535623	5999.408038	9.088717	0.002608	4.317666
158.486011	5999.414853	9.093722	0.002617	4.317665
158.479790	5999.394052	9.098727	0.002618	4.317657
158.492513	5999.422692	9.103731	0.002616	4.317668
158.555446	5999.427803	9.108736	0.002604	4.317674
158.615208	5999.444644	9.113741	0.002593	4.317684
158.494193	5999.420493	9.118746	0.002615	4.317667
158.509349	5999.413599	9.123751	0.002613	4.317666
158.514888	5999.405055	9.128755	0.002612	4.317663
158.552269	5999.377791	9.133760	0.002605	4.317657
158.547254	5999.388067	9.138765	0.002605	4.317660
158.599189	5999.425917	9.143770	0.002596	4.317676
158.636110	5999.421789	9.148775	0.002589	4.317678
158.580468	5999.440016	9.153779	0.002599	4.317680
158.684378	5999.414338	9.158784	0.002580	4.317679
158.708821	5999.424831	9.163789	0.002575	4.317684
158.766822	5999.408869	9.168794	0.002564	4.317683
158.747282	5999.424063	9.173799	0.002568	4.317686
158.665323	5999.410999	9.178803	0.002583	4.317676
158.651333	5999.401058	9.183808	0.002586	4.317672
158.557415	5999.388682	9.188813	0.002604	4.317661
158.616880	5999.425859	9.193818	0.002592	4.317678
158.524007	5999.414183	9.198823	0.002610	4.317667
158.664859	5999.402803	9.203827	0.002583	4.317673
158.794036	5999.413246	9.208832	0.002559	4.317686
158.753809	5999.437427	9.213837	0.002567	4.317691
158.846114	5999.426185	9.218842	0.002549	4.317694
158.836703	5999.404216	9.223847	0.002551	4.317686
158.842576	5999.388228	9.228851	0.002550	4.317681
158.824265	5999.429887	9.233856	0.002553	4.317694
158.787431	5999.422017	9.238861	0.002560	4.317689
158.797314	5999.430984	9.243866	0.002559	4.317692
158.836942	5999.419832	9.248871	0.002551	4.317691
158.852474	5999.440505	9.253875	0.002548	4.317699
158.804831	5999.415569	9.258880	0.002557	4.317688
158.710157	5999.431921	9.263885	0.002575	4.317686
158.633929	5999.422251	9.268890	0.002589	4.317678
158.800378	5999.431257	9.273895	0.002558	4.317693
158.758654	5999.415205	9.278899	0.002566	4.317684
158.681831	5999.425936	9.283904	0.002580	4.317682
158.631392	5999.421866	9.288909	0.002590	4.317677
158.628879	5999.353282	9.293914	0.002590	4.317654
158.636308	5999.395022	9.298919	0.002589	4.317669
158.782519	5999.427664	9.303923	0.002561	4.317690
158.768710	5999.406626	9.308928	0.002564	4.317682
158.820689	5999.418664	9.313933	0.002554	4.317690
158.782255	5999.406524	9.318938	0.002561	4.317683
158.767631	5999.433580	9.323943	0.002564	4.317691
158.800324	5999.425739	9.328947	0.002558	4.317691
158.859795	5999.406701	9.333952	0.002547	4.317689
158.795849	5999.420235	9.338957	0.002559	4.317689
158.785524	5999.415969	9.343962	0.002561	4.317686
158.616563	5999.412103	9.348967	0.002592	4.317673
158.684592	5999.409685	9.353971	0.002580	4.317677
158.739211	5999.420242	9.358976	0.002569	4.317684
158.682271	5999.432293	9.363981	0.002580	4.317684
158.704803	5999.398956	9.368986	0.002576	4.317675
158.773057	5999.422294	9.373991	0.002563	4.317688
158.765378	5999.422076	9.378995	0.002565	4.317687
158.831237	5999.428412	9.384000	0.002552	4.317694
158.845271	5999.399638	9.389005	0.002550	4.317685
158.782018	5999.403810	9.394010	0.002561	4.317682
158.790529	5999.411224	9.399015	0.002560	4.317685
158.835075	5999.433129	9.404019	0.002551	4.317696
158.822962	5999.405281	9.409024	0.002554	4.317685
158.874546	5999.408187	9.414029	0.002544	4.317690
158.744188	5999.404444	9.419034	0.002569	4.317679
158.823152	5999.428280	9.424039	0.002554	4.317693
158.929249	5999.390158	9.429043	0.002534	4.317688
159.009117	5999.431313	9.434048	0.002519	4.317708
158.840594	5999.408000	9.439053	0.002550	4.317688
158.737008	5999.388454	9.444058	0.002570	4.317674
158.889018	5999.402359	9.449063	0.002541	4.317689
158.948586	5999.418320	9.454067	0.002530	4.317699
158.940874	5999.423639	9.459072	0.002532	4.317700
158.951591	5999.428743	9.464077	0.002530	4.317703
158.736917	5999.419806	9.469082	0.002570	4.317684
158.813194	5999.411956	9.474087	0.002556	4.317687
158.650420	5999.420603	9.479091	0.002586	4.317678
158.687409	5999.421990	9.484096	0.002579	4.317681
158.757258	5999.419187	9.489101	0.002566	4.317685
158.706038	5999.410675	9.494106	0.002576	4.317679
158.730309	5999.421205	9.499111	0.002571	4.317684
158.799255	5999.402926	9.504115	0.002558	4.317683
158.690153	5999.421410	9.509120	0.002579	4.317681
158.671301	5999.387616	9.514125	0.002582	4.317669
158.738939	5999.407398	9.519130	0.002570	4.317680
158.808743	5999.418427	9.524135	0.002556	4.317689
158.832506	5999.415241	9.529139	0.002552	4.317689
158.856354	5999.445213	9.534144	0.002547	4.317701
158.815962	5999.415057	9.539149	0.002555	4.317688
158.753215	5999.439395	9.544154	0.002567	4.317692
158.911954	5999.407642	9.549159	0.002537	4.317693
158.952436	5999.416584	9.554163	0.002529	4.317699
158.893606	5999.412447	9.559168	0.002540	4.317693
158.964794	5999.416733	9.564173	0.002527	4.317699
158.910558	5999.411624	9.569178	0.002537	4.317694
159.004022	5999.401058	9.574183	0.002520	4.317697
159.087472	5999.409200	9.579187	0.002504	4.317706
158.879659	5999.414477	9.584192	0.002543	4.317693
158.775272	5999.363768	9.589197	0.002563	4.317668
158.798499	5999.392027	9.594202	0.002558	4.317679
158.806716	5999.410563	9.599207	0.002557	4.317686
158.848964	5999.413601	9.604211	0.002549	4.317690
158.707249	5999.406733	9.609216	0.002575	4.317678
158.801729	5999.412540	9.614221	0.002558	4.317686
158.819761	5999.422547	9.619226	0.002554	4.317691
158.944618	5999.423768	9.624231	0.002531	4.317700
158.784616	5999.415240	9.629235	0.002561	4.317686
158.789186	5999.411508	9.634240	0.002560	4.317685
158.823464	5999.401489	9.639245	0.002554	4.317684
158.971849	5999.443808	9.644250	0.002526	4.317709
158.837389	5999.426188	9.649255	0.002551	4.317694
158.881694	5999.424184	9.654259	0.002543	4.317696
158.875958	5999.424476	9.659264	0.002544	4.317696
159.001644	5999.405247	9.664269	0.002520	4.317698
158.957404	5999.410003	9.669274	0.002529	4.317697
158.984867	5999.436445	9.674279	0.002523	4.317708
158.947444	5999.416719	9.679283	0.002530	4.317698
158.906494	5999.407876	9.684288	0.002538	4.317692
158.942250	5999.417818	9.689293	0.002531	4.317698
158.925891	5999.423124	9.694298	0.002534	4.317699
158.791155	5999.434130	9.699303	0.002560	4.317693
158.883931	5999.425553	9.704307	0.002542	4.317697
158.868039	5999.416936	9.709312	0.002545	4.317693
158.931286	5999.420139	9.714317	0.002533	4.317698
159.016974	5999.404768	9.719322	0.002517	4.317699
159.072949	5999.419646	9.724327	0.002507	4.317708
159.032281	5999.406136	9.729331	0.002514	4.317701
158.993639	5999.420765	9.734336	0.002522	4.317703
158.949969	5999.409733	9.739341	0.002530	4.317696
159.005701	5999.421899	9.744346	0.002519	4.317704
158.967032	5999.412573	9.749351	0.002527	4.317698
159.026324	5999.428593	9.754355	0.002516	4.317708
159.077370	5999.411338	9.759360	0.002506	4.317706
159.086890	5999.416696	9.764365	0.002504	4.317708
158.970377	5999.416473	9.769370	0.002526	4.317700
159.232456	5999.426437	9.774375	0.002477	4.317722
159.101145	5999.410914	9.779379	0.002502	4.317707
159.177617	5999.419612	9.784384	0.002487	4.317716
159.113097	5999.420365	9.789389	0.002499	4.317711
159.269607	5999.413045	9.794394	0.002470	4.317720
159.097755	5999.410710	9.799399	0.002502	4.317707
159.086140	5999.438972	9.804403	0.002504	4.317716
159.167518	5999.399631	9.809408	0.002489	4.317708
159.116854	5999.427864	9.814413	0.002499	4.317714
158.995583	5999.420354	9.819418	0.002521	4.317703
159.038425	5999.424188	9.824423	0.002513	4.317707
158.974483	5999.425741	9.829427	0.002525	4.317703
159.148612	5999.403633	9.834432	0.002493	4.317708
159.128287	5999.427287	9.839437	0.002496	4.317715
159.233440	5999.406875	9.844442	0.002477	4.317715
159.151374	5999.408577	9.849447	0.002492	4.317710
159.174447	5999.421204	9.854451	0.002488	4.317716
159.242348	5999.411441	9.859456	0.002475	4.317718
159.168121	5999.429915	9.864461	0.002489	4.317719
159.227809	5999.397009	9.869466	0.002478	4.317712
159.182822	5999.449843	9.874471	0.002486	4.317726
159.246146	5999.406951	9.879475	0.002474	4.317716
159.301543	5999.419188	9.884480	0.002464	4.317724
159.284186	5999.397979	9.889485	0.002467	4.317716
159.259248	5999.419845	9.894490	0.002472	4.317722
159.068364	5999.409558	9.899495	0.002508	4.317704
159.129568	5999.404899	9.904499	0.002496	4.317707
159.216165	5999.421590	9.909504	0.002480	4.317719
159.276302	5999.419922	9.914509	0.002469	4.317723
159.149639	5999.438435	9.919514	0.002492	4.317720
159.145340	5999.418149	9.924519	0.002493	4.317713
159.043038	5999.425055	9.929523	0.002512	4.317708
159.275422	5999.407206	9.934528	0.002469	4.317719
159.178359	5999.438808	9.939533	0.002487	4.317722
159.318346	5999.449730	9.944538	0.002461	4.317736
159.202673	5999.408779	9.949543	0.002482	4.317714
159.257547	5999.403617	9.954547	0.002472	4.317716
159.178225	5999.419483	9.959552	0.002487	4.317716
159.272129	5999.422648	9.964557	0.002469	4.317724
159.201166	5999.408177	9.969562	0.002483	4.317714
159.227023	5999.416528	9.974567	0.002478	4.317718
159.107817	5999.395679	9.979571	0.002500	4.317703
159.295751	5999.442531	9.984576	0.002465	4.317732
159.197058	5999.425634	9.989581	0.002484	4.317719
159.212469	5999.425137	9.994586	0.002481	4.317720
159.311028	5999.442063	9.999591	0.002462	4.317733
159.256201	5999.414039	10.004595	0.002472	4.317719
159.231198	5997.439029	10.009600	0.002478	4.317049
159.398603	5991.594368	10.014605	0.002448	4.315080
159.214692	5985.579151	10.019610	0.002484	4.313027
159.333988	5979.602842	10.024615	0.002463	4.311008
159.106777	5973.552023	10.029619	0.002507	4.308939
159.134530	5967.580567	10.034624	0.002503	4.306913
159.072370	5961.549254	10.039629	0.002516	4.304860
159.114466	5955.571213	10.044634	0.002510	4.302831
159.021996	5949.556702	10.049639	0.002529	4.300779
159.093874	5943.520169	10.054643	0.002517	4.298731
158.952175	5937.540287	10.059648	0.002545	4.296685
159.049611	5931.538858	10.064653	0.002528	4.294649
158.953249	5925.541315	10.069658	0.002548	4.292599
158.955935	5919.517267	10.074663	0.002549	4.290546
158.947003	5913.528792	10.079667	0.002552	4.288503
159.016896	5907.540940	10.084672	0.002540	4.286465
158.772818	5901.493314	10.089677	0.002587	4.284383
158.777926	5895.513218	10.094682	0.002588	4.282341
158.625295	5889.514086	10.099687	0.002618	4.280280
158.667858	5883.460479	10.104691	0.002612	4.278214
158.442490	5877.504764	10.109696	0.002655	4.276161
158.452501	5871.478591	10.114701	0.002655	4.274100
158.458804	5865.464325	10.119706	0.002655	4.272041
158.475355	5859.476268	10.124711	0.002654	4.269992
158.397150	5853.440446	10.129715	0.002670	4.267918
158.449334	5847.491464	10.134720	0.002661	4.265882
158.429872	5841.441546	10.139725	0.002667	4.263806
158.488619	5835.414987	10.144730	0.002657	4.261742
158.404816	5829.452134	10.149735	0.002674	4.259689
158.464913	5823.413816	10.154739	0.002665	4.257619
158.303230	5817.440035	10.159744	0.002696	4.255554
158.345953	5811.430397	10.164749	0.002690	4.253491
158.218117	5805.447923	10.169754	0.002715	4.251424
158.258253	5799.389352	10.174759	0.002709	4.249342
158.032245	5793.414169	10.179763	0.002753	4.247268
158.012112	5787.422649	10.184768	0.002758	4.245202
157.966799	5781.358024	10.189773	0.002768	4.243109
158.072742	5775.391135	10.194778	0.002750	4.241059
157.798304	5769.389568	10.199783	0.002803	4.238968
157.810460	5763.370240	10.204787	0.002802	4.236891
157.699447	5757.376192	10.209792	0.002824	4.234813
157.722751	5751.367574	10.214797	0.002822	4.232739
157.612351	5745.342326	10.219802	0.002844	4.230647
157.683701	5739.337250	10.224807	0.002832	4.228576
157.602136	5733.353188	10.229811	0.002849	4.226499
157.592912	5727.336439	10.234816	0.002852	4.224416
157.600634	5721.326161	10.239821	0.002852	4.222334
157.642067	5715.306053	10.244826	0.002846	4.220251
157.551547	5709.335841	10.249831	0.002864	4.218175
157.557781	5703.327581	10.254835	0.002864	4.216091
157.498655	5697.291674	10.259840	0.002877	4.213992
157.430510	5691.305728	10.264845	0.002891	4.211908
157.533372	5685.280675	10.269850	0.002873	4.209823
157.526768	5679.285349	10.274855	0.002876	4.207739
157.347547	5673.313958	10.279859	0.002911	4.205649
157.309669	5667.282167	10.284864	0.002920	4.203547
157.223702	5661.281948	10.289869	0.002938	4.201452
157.165854	5655.260629	10.294874	0.002950	4.199351
157.130366	5649.251743	10.299879	0.002958	4.197254
157.196527	5643.282502	10.304883	0.002947	4.195178
156.968335	5637.253323	10.309888	0.002991	4.193058
156.980577	5631.237580	10.314893	0.002991	4.190960
156.897925	5625.230667	10.319898	0.003008	4.188856
156.927764	5619.261740	10.324903	0.003003	4.186773
156.922091	5613.208980	10.329907	0.003006	4.184658
156.878784	5607.200667	10.334912	0.003016	4.182553
156.905805	5601.207432	10.339917	0.003012	4.180459
157.004886	5595.198497	10.344922	0.002995	4.178363
156.791235	5589.236253	10.349927	0.003037	4.176259
156.941347	5583.174752	10.354931	0.003010	4.174147
156.709982	5577.232398	10.359936	0.003055	4.172046
156.806756	5571.156802	10.364941	0.003038	4.169922
156.492727	5565.191913	10.369946	0.003098	4.167805
156.769338	5559.179239	10.374951	0.003048	4.165715
156.698517	5553.140449	10.379955	0.003063	4.163589
156.632711	5547.170265	10.384960	0.003077	4.161485
156.512436	5541.154063	10.389965	0.003101	4.159361
156.596497	5535.164447	10.394970	0.003086	4.157260
156.472094	5529.144716	10.399975	0.003111	4.155131
156.454486	5523.113044	10.404979	0.003116	4.153006
156.337867	5517.150974	10.409984	0.003139	4.150896
156.345980	5511.112630	10.414989	0.003139	4.148768
156.227838	5505.127871	10.419994	0.003163	4.146648
156.290183	5499.126874	10.424999	0.003153	4.144535
156.162796	5493.105294	10.430003	0.003178	4.142399
156.189330	5487.072544	10.435008	0.003175	4.140270
156.080869	5481.094496	10.440013	0.003197	4.138149
156.067970	5475.114787	10.445018	0.003200	4.136034
156.022425	5469.073166	10.450023	0.003211	4.133892
156.018079	5463.094173	10.455027	0.003213	4.131776
155.822424	5457.078625	10.460032	0.003251	4.129630
155.851480	5451.094762	10.465037	0.003247	4.127512
155.802720	5445.029437	10.470042	0.003258	4.125358
155.874441	5439.053538	10.475047	0.003246	4.123244
155.638648	5433.061516	10.480051	0.003291	4.121098
155.753071	5427.024961	10.485056	0.003271	4.118964
155.754818	5421.047800	10.490061	0.003273	4.116841
155.733193	5415.041270	10.495066	0.003278	4.114704
155.502289	5409.031002	10.500071	0.003323	4.112548
155.603979	5403.016792	10.505075	0.003305	4.110416
155.394826	5397.007994	10.510080	0.003346	4.108260
155.553544	5391.019461	10.515085	0.003318	4.106140
155.442045	5384.996548	10.520090	0.003340	4.103985
155.488923	5379.012520	10.525095	0.003333	4.101855
155.254000	5372.971635	10.530099	0.003379	4.099681
155.453874	5366.988695	10.535104	0.003342	4.097561
155.214392	5360.984158	10.540109	0.003389	4.095398
155.253060	5354.978711	10.545114	0.003383	4.093255
155.240397	5348.961069	10.550119	0.003387	4.091103
155.209603	5342.970822	10.555123	0.003394	4.088958
155.081821	5336.989381	10.560128	0.003420	4.086806
155.069103	5330.958616	10.565133	0.003424	4.084646
154.903232	5324.922622	10.570138	0.003456	4.082470
154.961682	5318.933335	10.575143	0.003447	4.080328
154.829111	5312.929261	10.580147	0.003473	4.078164
154.876913	5306.921760	10.585152	0.003466	4.076012
154.908181	5300.909913	10.590157	0.003461	4.073856
154.741206	5294.942526	10.595162	0.003494	4.071699
154.609393	5288.883432	10.600167	0.003520	4.069511
154.735094	5282.931474	10.605171	0.003498	4.067381
154.721656	5276.899294	10.610176	0.003502	4.065209
154.629695	5270.896274	10.615181	0.003521	4.063041
154.466460	5264.867034	10.620186	0.003553	4.060856
154.612708	5258.871777	10.625191	0.003527	4.058707
154.494438	5252.892339	10.630195	0.003551	4.056542
154.505333	5246.873271	10.635200	0.003550	4.054371
154.306591	5240.865338	10.640205	0.003589	4.052186
154.227572	5234.870147	10.645210	0.003605	4.050015
154.249493	5228.866024	10.650215	0.003603	4.047847
154.346687	5222.839004	10.655219	0.003586	4.045676
154.132539	5216.842619	10.660224	0.003628	4.043489
154.160694	5210.837241	10.665229	0.003624	4.041318
154.017219	5204.814659	10.670234	0.003652	4.039125
154.002255	5198.850790	10.675239	0.003656	4.036963
154.020148	5192.817893	10.680243	0.003655	4.034778
154.113792	5186.830843	10.685248	0.003639	4.032614
153.965590	5180.800157	10.690253	0.003668	4.030413
153.958228	5174.835380	10.695258	0.003671	4.028247
153.976143	5168.769111	10.700263	0.003669	4.026045
153.832498	5162.813461	10.705267	0.003697	4.023868
153.761727	5156.785698	10.710272	0.003712	4.021670
153.821146	5150.778833	10.715277	0.003702	4.019489
153.750241	5144.764569	10.720282	0.003717	4.017293
153.702676	5138.761865	10.725287	0.003728	4.015102
153.626881	5132.756233	10.730291	0.003743	4.012907
153.647006	5126.733984	10.735296	0.003741	4.010713
153.446872	5120.753907	10.740301	0.003780	4.008513
153.636080	5114.758393	10.745306	0.003746	4.006341
153.496204	5108.710123	10.750311	0.003774	4.004120
153.514351	5102.751069	10.755315	0.003772	4.001943
153.356350	5096.712959	10.760320	0.003803	3.999722
153.419467	5090.745609	10.765325	0.003793	3.997544
153.436050	5084.703785	10.770330	0.003791	3.995333
153.311510	5078.745455	10.775335	0.003816	3.993140
153.130512	5072.684553	10.780339	0.003851	3.990903
153.046636	5066.708031	10.785344	0.003869	3.988704
152.978869	5060.674889	10.790349	0.003883	3.986485
153.003714	5054.681046	10.795354	0.003880	3.984287
152.954633	5048.677408	10.800359	0.003890	3.982077
153.001581	5042.656927	10.805363	0.003883	3.979869
152.932123	5036.713192	10.810368	0.003897	3.977677
152.851379	5030.655828	10.815373	0.003914	3.975441
152.859981	5024.653619	10.820378	0.003914	3.973233
152.955580	5018.647641	10.825383	0.003897	3.971029
152.820604	5012.631151	10.830387	0.003924	3.968800
152.828699	5006.643330	10.835392	0.003924	3.966592
152.652725	5000.627350	10.840397	0.003959	3.964357
152.795411	4994.626893	10.845402	0.003933	3.962155
152.446066	4988.646393	10.850407	0.004001	3.959915
152.689972	4982.616659	10.855411	0.003956	3.957708
152.417679	4976.590109	10.860416	0.004009	3.955456
152.491583	4970.621962	10.865421	0.003996	3.953254
152.435092	4964.591304	10.870426	0.004009	3.951016
152.559601	4958.614347	10.875431	0.003987	3.948814
152.391349	4952.595332	10.880435	0.004020	3.946568
152.524254	4946.557386	10.885440	0.003996	3.944341
152.335365	4940.576321	10.890445	0.004033	3.942105
152.460588	4934.561274	10.895450	0.004011	3.939883
152.197345	4928.586446	10.900455	0.004062	3.937640
152.226595	4922.561733	10.905459	0.004058	3.935403
152.161293	4916.551392	10.910464	0.004072	3.933162
152.038739	4910.555750	10.915469	0.004096	3.930920
152.052178	4904.569442	10.920474	0.004095	3.928693
152.103283	4898.536405	10.925479	0.004087	3.926450
151.867278	4892.524852	10.930483	0.004133	3.924188
151.997894	4886.520586	10.935488	0.004110	3.921961
151.792194	4880.507927	10.940493	0.004150	3.919698
151.865346	4874.532696	10.945498	0.004138	3.917474
151.768237	4868.500011	10.950503	0.004157	3.915211
151.726872	4862.507487	10.955507	0.004167	3.912968
151.622433	4856.486104	10.960512	0.004188	3.910706
151.654224	4850.516193	10.965517	0.004183	3.908475
151.675867	4844.468782	10.970522	0.004181	3.906212
151.526746	4838.483724	10.975527	0.004210	3.903956
151.446740	4832.446312	10.980531	0.004227	3.901686
151.502625	4826.484330	10.985536	0.004218	3.899454
151.377230	4820.464955	10.990541	0.004243	3.897184
151.473712	4814.455098	10.995546	0.004226	3.894936
151.306940	4808.461977	11.000551	0.004259	3.892668
151.369709	4802.458111	11.005555	0.004249	3.890417
151.256809	4796.435727	11.010560	0.004271	3.888141
151.279925	4790.431893	11.015565	0.004268	3.885883
151.145242	4784.440155	11.020570	0.004295	3.883614
151.167946	4778.421062	11.025575	0.004292	3.881348
150.877073	4772.442249	11.030579	0.004348	3.879067
151.107314	4766.406043	11.035584	0.004307	3.876810
150.821381	4760.409230	11.040589	0.004362	3.874520
150.951504	4754.397014	11.045594	0.004339	3.872261
150.810775	4748.368621	11.050599	0.004367	3.869969
150.898331	4742.402700	11.055603	0.004352	3.867721
150.823116	4736.374502	11.060608	0.004368	3.865433
150.854310	4730.378232	11.065613	0.004363	3.863166
150.704561	4724.357349	11.070618	0.004393	3.860871
150.729975	4718.370406	11.075623	0.004389	3.858603
150.542336	4712.360295	11.080627	0.004426	3.856306
150.648013	4706.359081	11.085632	0.004408	3.854038
150.457890	4700.350250	11.090637	0.004445	3.851739
150.563484	4694.323265	11.095642	0.004427	3.849458
150.465410	4688.308080	11.100647	0.004447	3.847162
150.709749	4682.297500	11.105651	0.004402	3.844898
150.455708	4676.336129	11.110656	0.004451	3.842605
150.435779	4670.314952	11.115661	0.004457	3.840310
150.361820	4664.309901	11.120666	0.004472	3.838014
150.356930	4658.297149	11.125671	0.004474	3.835721
150.191843	4652.319406	11.130675	0.004507	3.833424
150.169806	4646.278067	11.135680	0.004512	3.831116
150.216310	4640.319003	11.140685	0.004505	3.828843
150.121451	4634.280071	11.145690	0.004524	3.826526
150.071328	4628.272924	11.150695	0.004535	3.824224
150.000392	4622.269686	11.155699	0.004550	3.821919
149.953360	4616.244612	11.160704	0.004560	3.819607
150.025930	4610.284740	11.165709	0.004548	3.817330
149.715915	4604.240277	11.170714	0.004608	3.814983
149.785702	4598.276922	11.175719	0.004596	3.812702
149.723680	4592.228750	11.180723	0.004609	3.810374
149.826529	4586.267584	11.185728	0.004592	3.808094
149.748009	4580.217064	11.190733	0.004608	3.805761
149.698305	4574.244264	11.195738	0.004619	3.803459
149.643011	4568.213236	11.200743	0.004631	3.801133
149.492094	4562.254365	11.205747	0.004660	3.798824
149.463695	4556.185165	11.210752	0.004667	3.796483
149.609985	4550.219368	11.215757	0.004641	3.794197
149.351433	4544.198921	11.220762	0.004691	3.791850
149.460878	4538.196191	11.225767	0.004672	3.789543
149.273309	4532.200300	11.230771	0.004709	3.787209
149.347628	4526.190247	11.235776	0.004696	3.784893
149.242843	4520.163352	11.240781	0.004718	3.782553
149.304409	4514.164659	11.245786	0.004707	3.780237
149.276023	4508.191377	11.250791	0.004714	3.777922
149.230542	4502.148730	11.255795	0.004724	3.775576
148.992811	4496.174265	11.260800	0.004770	3.773237
148.946034	4490.135495	11.265805	0.004781	3.770890
148.995357	4484.170406	11.270810	0.004773	3.768579
148.980456	4478.131907	11.275815	0.004777	3.766232
148.926155	4472.127982	11.280819	0.004789	3.763894
148.944921	4466.119029	11.285824	0.004787	3.761559
148.729075	4460.133668	11.290829	0.004829	3.759208
148.691581	4454.107945	11.295834	0.004837	3.756859
148.612396	4448.108554	11.300839	0.004854	3.754513
148.659546	4442.107445	11.305843	0.004846	3.752178
148.496439	4436.120008	11.310848	0.004878	3.749827
148.693073	4430.092565	11.315853	0.004843	3.747493
148.561161	4424.073649	11.320858	0.004869	3.745129
148.686829	4418.090771	11.325863	0.004847	3.742803
148.484446	4412.059035	11.330867	0.004887	3.740424
148.392649	4406.100486	11.335872	0.004905	3.738083
148.349448	4400.060849	11.340877	0.004915	3.735714
148.296972	4394.068840	11.345882	0.004926	3.733361
148.166747	4388.049445	11.350887	0.004952	3.730988
148.295845	4382.075401	11.355891	0.004929	3.728657
148.134192	4376.022385	11.360896	0.004961	3.726265
148.121800	4370.071991	11.365901	0.004965	3.723926
147.907925	4364.004368	11.370906	0.005007	3.721520
148.072929	4358.038603	11.375911	0.004977	3.719190
147.834098	4352.016933	11.380915	0.005024	3.716796
147.998856	4346.036527	11.385920	0.004994	3.714457
147.836729	4339.992809	11.390925	0.005026	3.712059
147.968019	4334.024521	11.395930	0.005003	3.709719
147.762171	4327.978452	11.400935	0.005043	3.707312
147.901082	4322.014199	11.405939	0.005018	3.704971
147.662706	4315.977235	11.410944	0.005065	3.702562
147.721552	4310.015805	11.415949	0.005055	3.700211
147.605041	4303.976852	11.420954	0.005078	3.697811
147.647858	4297.945166	11.425959	0.005072	3.695427
147.472541	4291.970180	11.430963	0.005106	3.693043
147.453033	4285.959914	11.435968	0.005111	3.690658
147.334740	4279.961613	11.440973	0.005135	3.688267
147.367580	4273.935479	11.445978	0.005130	3.685879
147.149712	4267.945513	11.450983	0.005173	3.683478
147.261605	4261.937498	11.455987	0.005153	3.681102
147.246368	4255.926813	11.460992	0.005158	3.678710
147.263687	4249.910869	11.465997	0.005156	3.676318
147.118959	4243.928083	11.471002	0.005184	3.673921
147.089158	4237.919614	11.476007	0.005192	3.671524
147.101828	4231.911945	11.481011	0.005191	3.669130
146.990084	4225.915303	11.486016	0.005213	3.666726
146.935827	4219.893715	11.491021	0.005225	3.664316
146.979779	4213.878051	11.496026	0.005218	3.661917
146.925584	4207.905766	11.501031	0.005230	3.659524
146.800091	4201.883320	11.506035	0.005255	3.657102
146.638583	4195.885955	11.511040	0.005286	3.654685
146.625973	4189.861815	11.516045	0.005290	3.652271
146.643941	4183.873443	11.521050	0.005288	3.649872
146.585537	4177.869141	11.526055	0.005301	3.647458
146.379096	4171.859090	11.531059	0.005341	3.645025
146.373594	4165.851430	11.536064	0.005344	3.642611
146.387049	4159.830398	11.541069	0.005343	3.640193
146.340060	4153.844614	11.546074	0.005353	3.637781
146.314701	4147.833148	11.551079	0.005359	3.635359
146.386490	4141.822860	11.556083	0.005347	3.632947
146.106467	4135.841655	11.561088	0.005401	3.630507
146.259980	4129.800257	11.566093	0.005374	3.628087
146.179105	4123.805442	11.571098	0.005391	3.625660
146.038575	4117.819443	11.576103	0.005418	3.623228
146.030081	4111.796067	11.581107	0.005421	3.620794
146.015758	4105.797570	11.586112	0.005426	3.618367
145.905904	4099.784134	11.591117	0.005448	3.615922
145.875826	4093.763950	11.596122	0.005455	3.613482
145.799913	4087.717487	11.601127	0.005471	3.611024
145.730135	4081.742856	11.606131	0.005485	3.608595
145.679275	4075.702697	11.611136	0.005496	3.606139
145.715132	4069.712338	11.616141	0.005491	3.603711
145.582840	4063.711005	11.621146	0.005517	3.601259
145.675840	4057.704520	11.626151	0.005501	3.598827
145.625255	4051.679963	11.631155	0.005512	3.596371
145.623283	4045.701958	11.636160	0.005514	3.593937
145.328229	4039.665722	11.641165	0.005571	3.591447
145.578755	4033.692223	11.646170	0.005526	3.589039
145.424609	4027.661716	11.651175	0.005556	3.586563
145.393431	4021.684065	11.656179	0.005563	3.584119
145.365078	4015.646341	11.661184	0.005570	3.581650
145.294858	4009.696388	11.666189	0.005585	3.579211
145.219198	4003.645903	11.671194	0.005600	3.576728
145.178891	3997.666560	11.676199	0.005609	3.574276
145.060812	3991.611333	11.681203	0.005633	3.571783
145.098850	3985.664502	11.686208	0.005627	3.569350
145.035368	3979.615436	11.691213	0.005641	3.566862
144.987179	3973.631962	11.696218	0.005651	3.564401
144.899798	3967.597690	11.701223	0.005669	3.561913
145.000862	3961.639928	11.706227	0.005652	3.559475
144.850921	3955.594246	11.711232	0.005681	3.556972
144.803740	3949.618106	11.716237	0.005692	3.554507
144.731734	3943.586052	11.721242	0.005707	3.552015
144.718453	3937.626698	11.726247	0.005711	3.549558
144.620860	3931.559983	11.731251	0.005731	3.547045
144.759797	3925.597960	11.736256	0.005706	3.544599
144.507215	3919.559927	11.741261	0.005755	3.542078
144.532230	3913.592759	11.746266	0.005752	3.539614
144.506889	3907.548091	11.751271	0.005758	3.537111
144.428491	3901.592000	11.756275	0.005774	3.534637
144.328421	3895.535144	11.761280	0.005794	3.532117
144.486253	3889.543247	11.766285	0.005766	3.529651
144.525525	3883.517936	11.771290	0.005760	3.527157
144.440905	3877.561596	11.776295	0.005778	3.524675
144.208149	3871.510901	11.781299	0.005823	3.522136
144.274790	3865.540658	11.786304	0.005812	3.519662
144.111176	3859.510996	11.791309	0.005844	3.517135
144.187154	3853.536955	11.796314	0.005831	3.514657
143.980969	3847.497457	11.801319	0.005871	3.512118
144.001015	3841.527465	11.806323	0.005869	3.509632
144.013930	3835.477573	11.811328	0.005868	3.507110
144.104123	3829.497974	11.816333	0.005853	3.504623
143.884317	3823.477459	11.821338	0.005895	3.502084
143.926215	3817.501475	11.826343	0.005889	3.499590
143.703146	3811.474264	11.831347	0.005932	3.497044
143.709364	3805.489666	11.836352	0.005933	3.494539
143.650577	3799.445685	11.841357	0.005945	3.492000
143.619531	3793.481271	11.846362	0.005953	3.489496
143.631477	3787.434422	11.851367	0.005952	3.486960
143.476115	3781.465398	11.856371	0.005982	3.484436
143.505641	3775.433729	11.861376	0.005978	3.481905
143.430358	3769.456295	11.866381	0.005994	3.479383
143.358055	3763.449794	11.871386	0.006009	3.476848
143.229350	3757.445934	11.876391	0.006035	3.474305
143.147051	3751.405083	11.881395	0.006052	3.471750
143.249164	3745.413463	11.886400	0.006034	3.469235
143.260095	3739.406493	11.891405	0.006033	3.466701
143.220910	3733.408641	11.896410	0.006042	3.464163
143.057053	3727.437977	11.901415	0.006075	3.461621
142.989081	3721.385229	11.906419	0.006089	3.459053
142.922140	3715.385393	11.911424	0.006103	3.456506
142.923159	3709.378898	11.916429	0.006104	3.453962
142.851749	3703.402429	11.921434	0.006119	3.451420
142.787035	3697.390319	11.926439	0.006133	3.448862
142.734614	3691.343331	11.931443	0.006144	3.446289
142.743256	3685.354760	11.936448	0.006144	3.443746
142.623050	3679.380063	11.941453	0.006168	3.441192
142.633636	3673.366097	11.946458	0.006167	3.438634
142.509955	3667.342694	11.951463	0.006192	3.436055
142.416754	3661.338252	11.956467	0.006211	3.433486
142.392574	3655.349488	11.961472	0.006217	3.430929
142.386425	3649.342717	11.966477	0.006220	3.428365
142.391608	3643.302994	11.971482	0.006220	3.425786
142.450508	3637.315171	11.976487	0.006211	3.423234
142.185127	3631.349872	11.981491	0.006262	3.420652
142.250127	3625.303001	11.986496	0.006251	3.418071
142.011574	3619.303874	11.991501	0.006297	3.415473
142.184243	3613.292644	11.996506	0.006267	3.412917
142.106975	3607.323199	12.001511	0.006283	3.410346
142.139872	3601.274952	12.006515	0.006278	3.407754
142.102515	3595.259327	12.011520	0.006286	3.405165
142.094913	3589.304704	12.016525	0.006289	3.402603
141.842453	3583.269679	12.021530	0.006338	3.399976
141.904228	3577.285506	12.026535	0.006328	3.397407
141.819497	3571.274519	12.031539	0.006345	3.394806
141.865457	3565.261807	12.036544	0.006338	3.392218
141.818418	3559.235216	12.041549	0.006349	3.389611
141.632571	3553.263169	12.046554	0.006385	3.387010
141.647039	3547.223145	12.051559	0.006384	3.384400
141.560717	3541.268290	12.056563	0.006401	3.381814
141.496774	3535.208772	12.061568	0.006415	3.379182
141.456017	3529.252745	12.066573	0.006424	3.376597
141.371450	3523.199002	12.071578	0.006441	3.373961
141.571358	3517.239494	12.076583	0.006405	3.371399
141.470422	3511.193193	12.081587	0.006426	3.368761
141.422825	3505.210124	12.086592	0.006436	3.366155
141.280358	3499.189167	12.091597	0.006464	3.363519
141.443730	3493.207083	12.096602	0.006435	3.360934
141.175868	3487.171677	12.101607	0.006487	3.358272
141.140041	3481.202667	12.106611	0.006495	3.355666
141.026039	3475.156355	12.111616	0.006518	3.353013
141.057359	3469.185925	12.116621	0.006514	3.350410
141.024880	3463.170047	12.121626	0.006521	3.347777
140.970715	3457.167101	12.126631	0.006533	3.345145
140.775141	3451.166268	12.131635	0.006571	3.342494
140.891919	3445.155120	12.136640	0.006551	3.339875
140.642961	3439.156031	12.141645	0.006599	3.337214
140.501262	3433.143997	12.146650	0.006627	3.334559
140.575528	3427.145418	12.151655	0.006614	3.331934
140.561093	3421.125195	12.156659	0.006619	3.329287
140.375504	3415.135651	12.161664	0.006655	3.326630
140.488558	3409.104979	12.166669	0.006635	3.323989
140.438339	3403.133263	12.171674	0.006646	3.321352
140.493154	3397.108570	12.176679	0.006637	3.318703
140.342393	3391.110223	12.181683	0.006667	3.316038
140.361878	3385.090222	12.186688	0.006665	3.313382
140.231010	3379.110177	12.191693	0.006691	3.310723
140.205817	3373.096861	12.196698	0.006697	3.308060
140.265694	3367.060264	12.201703	0.006687	3.305395
140.211718	3361.094327	12.206707	0.006699	3.302746
140.057913	3355.083158	12.211712	0.006729	3.300061
139.993328	3349.086312	12.216717	0.006743	3.297392
139.888632	3343.035379	12.221722	0.006764	3.294692
139.916268	3337.081370	12.226727	0.006760	3.292049
139.779916	3331.041552	12.231731	0.006788	3.289346
139.952005	3325.038230	12.236736	0.006757	3.286695
139.746323	3319.048928	12.241741	0.006797	3.284001
139.611076	3313.053160	12.246746	0.006824	3.281310
139.644541	3306.998621	12.251751	0.006819	3.278612
139.674008	3301.050794	12.256755	0.006815	3.275960
139.629899	3294.998027	12.261760	0.006825	3.273248
139.654539	3289.028498	12.266765	0.006821	3.270581
139.400875	3283.032521	12.271770	0.006871	3.267864
139.242957	3276.998519	12.276775	0.006902	3.265140
139.231487	3271.014398	12.281779	0.006905	3.262455
139.218517	3264.994614	12.286784	0.006909	3.259751
139.163255	3258.998088	12.291789	0.006921	3.257051
139.164435	3252.968323	12.296794	0.006922	3.254340
139.011784	3247.003941	12.301799	0.006952	3.251636
139.054359	3240.962760	12.306803	0.006946	3.248921
138.982420	3234.961261	12.311808	0.006961	3.246207
139.030791	3228.965855	12.316813	0.006953	3.243509
139.010457	3222.954196	12.321818	0.006959	3.240792
138.863394	3216.968508	12.326823	0.006988	3.238068
138.761400	3210.931614	12.331827	0.007008	3.235325
138.857750	3204.955005	12.336832	0.006992	3.232632
138.865198	3198.913632	12.341837	0.006992	3.229896
138.771941	3192.970832	12.346842	0.007011	3.227190
138.456850	3186.934158	12.351847	0.007071	3.224410
138.572738	3180.920504	12.356851	0.007051	3.221694
138.411264	3174.913622	12.361856	0.007083	3.218942
138.408717	3168.917921	12.366861	0.007085	3.216214
138.341729	3162.907383	12.371866	0.007099	3.213469
138.393160	3156.927661	12.376871	0.007091	3.210750
138.423990	3150.890459	12.381875	0.007087	3.208001
138.302037	3144.897458	12.386880	0.007111	3.205249
138.253047	3138.881215	12.391885	0.007122	3.202494
138.418407	3132.865261	12.396890	0.007092	3.199765
138.224959	3126.879032	12.401895	0.007130	3.196999
138.109676	3120.889242	12.406899	0.007153	3.194240
138.113473	3114.873161	12.411904	0.007154	3.191483
138.128500	3108.860404	12.416909	0.007152	3.188726
137.925986	3102.861803	12.421914	0.007192	3.185944
137.902809	3096.881378	12.426919	0.007198	3.183192
137.662616	3090.839822	12.431923	0.007244	3.180381
137.799300	3084.846841	12.436928	0.007220	3.177639
137.651157	3078.820628	12.441933	0.007249	3.174842
137.743431	3072.835247	12.446938	0.007234	3.172094
137.748834	3066.818588	12.451943	0.007234	3.169317
137.616195	3060.826167	12.456947	0.007260	3.166530
137.562271	3054.823076	12.461952	0.007272	3.163746
137.530251	3048.820982	12.466957	0.007280	3.160964
137.391573	3042.820048	12.471962	0.007307	3.158165
137.462924	3036.783852	12.476967	0.007295	3.155375
137.285521	3030.826404	12.481971	0.007330	3.152586
137.372295	3024.775540	12.486976	0.007315	3.149787
136.932924	3018.800132	12.491981	0.007399	3.146950
136.974916	3012.770399	12.496986	0.007393	3.144149
136.897800	3006.818803	12.501991	0.007409	3.141367
136.947321	3000.764762	12.506995	0.007401	3.138551
136.898444	2994.748753	12.512000	0.007411	3.135737
136.844773	2988.789677	12.517005	0.007423	3.132947
136.708231	2982.743911	12.522010	0.007450	3.130102
136.573788	2976.769136	12.527015	0.007477	3.127288
136.615501	2970.709158	12.532019	0.007471	3.124456
136.670648	2964.770567	12.537024	0.007462	3.121680
136.543404	2958.726149	12.542029	0.007487	3.118826
136.629416	2952.718780	12.547034	0.007472	3.116017
136.415249	2946.744036	12.552039	0.007514	3.113180
136.490350	2940.715532	12.557043	0.007501	3.110354
136.466653	2934.720687	12.562048	0.007507	3.107528
136.358421	2928.707042	12.567053	0.007529	3.104679
136.199687	2922.744854	12.572058	0.007560	3.101844
136.055822	2916.704543	12.577063	0.007589	3.098972
136.069272	2910.679940	12.582067	0.007588	3.096127
136.162849	2904.690149	12.587072	0.007572	3.093306
136.054251	2898.692572	12.592077	0.007594	3.090452
136.004102	2892.685420	12.597082	0.007605	3.087598
135.969221	2886.662262	12.602087	0.007613	3.084736
135.885201	2880.693985	12.607091	0.007630	3.081891
135.797193	2874.664806	12.612096	0.007648	3.079013
135.769863	2868.654954	12.617101	0.007654	3.076150
135.709856	2862.673436	12.622106	0.007667	3.073294
135.747330	2856.651784	12.627111	0.007662	3.070430
135.486531	2850.660148	12.632115	0.007712	3.067535
135.480365	2844.643703	12.637120	0.007715	3.064661
135.540742	2838.629601	12.642125	0.007705	3.061796
135.326389	2832.670198	12.647130	0.007747	3.058915
135.374774	2826.600510	12.652135	0.007739	3.056015
135.339450	2820.630297	12.657139	0.007747	3.053149
135.350888	2814.603101	12.662144	0.007746	3.050259
135.259373	2808.614003	12.667149	0.007765	3.047371
135.135564	2802.631103	12.672154	0.007790	3.044477
135.081826	2796.597544	12.677159	0.007801	3.041567
134.976693	2790.590197	12.682163	0.007823	3.038659
134.873602	2784.593883	12.687168	0.007843	3.035754
134.903160	2778.591847	12.692173	0.007839	3.032863
134.938371	2772.575746	12.697178	0.007834	3.029962
134.788733	2766.581520	12.702183	0.007864	3.027043
134.737243	2760.607869	12.707187	0.007875	3.024145
134.674925	2754.545258	12.712192	0.007888	3.021200
134.603183	2748.584084	12.717197	0.007903	3.018300
134.526987	2742.535480	12.722202	0.007919	3.015353
134.708571	2736.567718	12.727207	0.007886	3.012481
134.462969	2730.559461	12.732211	0.007934	3.009524
134.335130	2724.532429	12.737216	0.007959	3.006572
134.392575	2718.556081	12.742221	0.007950	3.003669
134.308385	2712.529812	12.747226	0.007967	3.000718
134.261625	2706.534789	12.752231	0.007978	2.997785
134.248304	2700.549727	12.757235	0.007982	2.994859
134.024807	2694.513996	12.762240	0.008025	2.991874
134.116069	2688.514635	12.767245	0.008009	2.988950
133.931763	2682.510527	12.772250	0.008045	2.985981
134.009497	2676.498983	12.777255	0.008032	2.983044
133.960418	2670.510939	12.782259	0.008043	2.980096
133.959995	2664.486338	12.787264	0.008045	2.977135
133.805408	2658.508857	12.792269	0.008075	2.974171
133.797960	2652.476200	12.797274	0.008078	2.971199
133.762102	2646.464435	12.802279	0.008086	2.968230
133.801987	2640.490352	12.807283	0.008080	2.965288
133.676079	2634.474678	12.812288	0.008105	2.962298
133.594063	2628.492985	12.817293	0.008122	2.959328
133.511267	2622.448863	12.822298	0.008139	2.956324
133.467407	2616.460941	12.827303	0.008149	2.953350
133.436538	2610.458177	12.832307	0.008156	2.950368
133.355299	2604.451525	12.837312	0.008173	2.947374
133.260114	2598.462761	12.842317	0.008192	2.944383
133.170655	2592.432625	12.847322	0.008211	2.941370
133.062584	2586.440025	12.852327	0.008232	2.938370
133.057219	2580.434514	12.857331	0.008235	2.935375
133.061484	2574.408463	12.862336	0.008236	2.932368
132.982765	2568.439889	12.867341	0.008252	2.929375
132.851155	2562.411076	12.872346	0.008278	2.926340
132.859700	2556.439724	12.877351	0.008278	2.923353
132.873085	2550.390180	12.882355	0.008277	2.920323
132.743444	2544.411347	12.887360	0.008303	2.917305
132.750515	2538.414156	12.892365	0.008303	2.914295
132.716340	2532.382885	12.897370	0.008311	2.911258
132.717864	2526.383073	12.902375	0.008312	2.908239
132.692082	2520.386617	12.907379	0.008318	2.905215
132.472207	2514.399007	12.912384	0.008361	2.902162
132.429457	2508.374561	12.917389	0.008370	2.899115
132.314040	2502.368670	12.922394	0.008394	2.896062
132.294035	2496.360538	12.927399	0.008399	2.893020
132.162761	2490.356216	12.932403	0.008425	2.889960
132.096197	2484.354035	12.937408	0.008439	2.886907
132.038394	2478.364800	12.942413	0.008451	2.883859
132.001549	2472.347905	12.947418	0.008460	2.880797
131.898473	2466.329998	12.952423	0.008480	2.877721
132.022073	2460.331000	12.957427	0.008459	2.874686
131.911284	2454.329544	12.962432	0.008481	2.871611
131.871307	2448.321535	12.967437	0.008490	2.868540
131.686356	2442.353258	12.972442	0.008526	2.865463
131.689743	2436.317482	12.977447	0.008527	2.862378
131.692271	2430.320177	12.982451	0.008528	2.859309
131.605647	2424.318203	12.987456	0.008546	2.856220
131.505125	2418.320336	12.992461	0.008566	2.853128
131.547473	2412.301698	12.997466	0.008560	2.850045
131.455909	2406.272895	13.002471	0.008578	2.846931
131.374563	2400.315528	13.007475	0.008595	2.843853
131.272811	2394.304287	13.012480	0.008616	2.840740
131.318513	2388.260509	13.017485	0.008609	2.837631
131.364419	2382.281283	13.022490	0.008602	2.834551
131.274838	2376.265005	13.027495	0.008620	2.831428
131.233031	2370.284163	13.032499	0.008629	2.828327
131.002652	2364.296795	13.037504	0.008674	2.825189
131.037730	2358.238785	13.042509	0.008669	2.822053
130.954953	2352.269435	13.047514	0.008686	2.818941
130.929521	2346.250044	13.052519	0.008692	2.815809
130.888016	2340.242315	13.057523	0.008701	2.812676
130.857187	2334.234419	13.062528	0.008709	2.809542
130.704709	2328.247421	13.067533	0.008739	2.806396
130.573233	2322.250594	13.072538	0.008765	2.803244
130.498411	2316.241912	13.077543	0.008780	2.800092
130.498022	2310.203932	13.082547	0.008782	2.796933
130.439899	2304.232908	13.087552	0.008794	2.793796
130.229587	2298.235350	13.092557	0.008835	2.790617
130.144687	2292.200026	13.097562	0.008853	2.787434
130.149582	2286.223407	13.102567	0.008853	2.784294
130.065392	2280.209951	13.107571	0.008871	2.781116
130.056980	2274.185868	13.112576	0.008874	2.777941
130.036139	2268.199149	13.117581	0.008879	2.774781
130.011580	2262.189686	13.122586	0.008885	2.771604
129.974307	2256.186939	13.127591	0.008894	2.768425
129.871993	2250.197739	13.132595	0.008914	2.765238
129.898785	2244.151851	13.137600	0.008911	2.762039
129.734364	2238.198837	13.142605	0.008943	2.758855
129.699937	2232.177134	13.147610	0.008951	2.755651
129.588398	2226.165314	13.152615	0.008973	2.752437
129.378400	2220.175993	13.157619	0.009014	2.749214
129.307361	2214.164029	13.162624	0.009029	2.745998
129.089953	2208.149199	13.167629	0.009071	2.742753
129.167227	2202.135640	13.172634	0.009058	2.739553
129.073349	2196.159091	13.177639	0.009077	2.736341
129.094840	2190.131476	13.182643	0.009075	2.733118
129.053365	2184.135268	13.187648	0.009084	2.729896
129.032131	2178.128214	13.192653	0.009090	2.726669
128.995318	2172.113988	13.197658	0.009098	2.723431
129.047076	2166.118683	13.202663	0.009090	2.720214
128.842188	2160.133089	13.207667	0.009130	2.716956
128.968895	2154.103682	13.212672	0.009107	2.713726
128.676869	2148.122332	13.217677	0.009164	2.710447
128.787611	2142.084569	13.222682	0.009144	2.707202
128.710972	2136.118467	13.227687	0.009160	2.703960
128.427246	2130.111654	13.232691	0.009215	2.700657
128.308414	2124.095152	13.237696	0.009239	2.697373
128.306648	2118.098705	13.242701	0.009241	2.694115
128.366043	2112.073086	13.247706	0.009231	2.690848
128.266148	2106.068696	13.252711	0.009251	2.687562
128.190716	2100.096075	13.257715	0.009267	2.684293
128.140312	2094.062886	13.262720	0.009278	2.680991
128.188855	2088.057973	13.267725	0.009270	2.677718
128.112322	2082.082071	13.272730	0.009286	2.674435
127.986049	2076.063165	13.277735	0.009311	2.671115
127.970178	2070.028404	13.282739	0.009316	2.667802
127.902956	2064.074716	13.287744	0.009330	2.664521
127.841900	2058.052701	13.292749	0.009343	2.661198
127.561043	2052.063996	13.297754	0.009397	2.657852
127.740617	2046.014014	13.302759	0.009365	2.654548
127.627705	2040.035028	13.307763	0.009387	2.651228
127.472405	2034.041159	13.312768	0.009418	2.647889
127.389070	2028.029660	13.317773	0.009435	2.644547
127.286644	2022.024252	13.322778	0.009456	2.641202
127.178552	2016.022692	13.327783	0.009478	2.637854
127.192322	2010.016902	13.332787	0.009477	2.634520
127.061262	2004.007944	13.337792	0.009503	2.631155
127.200126	1997.980557	13.342797	0.009478	2.627823
127.191967	1991.992248	13.347802	0.009481	2.624482
127.110955	1986.022674	13.352807	0.009498	2.621135
127.047443	1979.978482	13.357811	0.009511	2.617745
126.993129	1974.001945	13.362816	0.009523	2.614389
126.798235	1967.996252	13.367821	0.009561	2.610989
126.570949	1962.016328	13.372826	0.009605	2.607592
126.605554	1955.960189	13.377831	0.009600	2.604195
126.502844	1949.978095	13.382835	0.009621	2.600811
126.456723	1943.972266	13.387840	0.009631	2.597419
126.357023	1937.957098	13.392845	0.009651	2.594007
126.338570	1931.972885	13.397850	0.009656	2.590623
126.321233	1925.960290	13.402855	0.009661	2.587219
126.327946	1919.950971	13.407859	0.009661	2.583817
126.325163	1913.949289	13.412864	0.009663	2.580413
126.241946	1907.919137	13.417869	0.009680	2.576973
126.233009	1901.916696	13.422874	0.009683	2.573558
126.189751	1895.927719	13.427879	0.009693	2.570140
126.184424	1889.949921	13.432883	0.009695	2.566731
125.953852	1883.934129	13.437888	0.009740	2.563255
125.899058	1877.917849	13.442893	0.009752	2.559805
125.837455	1871.948956	13.447898	0.009765	2.556377
125.808274	1865.918392	13.452903	0.009772	2.552914
125.622000	1859.931193	13.457907	0.009808	2.549443
125.555259	1853.915282	13.462912	0.009822	2.545973
125.513907	1847.908411	13.467917	0.009832	2.542508
125.376415	1841.892189	13.472922	0.009859	2.539015
125.377223	1835.919902	13.477927	0.009860	2.535568
125.405292	1829.896221	13.482931	0.009856	2.532092
125.198735	1823.882680	13.487936	0.009897	2.528573
125.177121	1817.900232	13.492941	0.009902	2.525102
125.074012	1811.883184	13.497946	0.009923	2.521591
125.095661	1805.888349	13.502951	0.009920	2.518111
125.154632	1799.871255	13.507955	0.009911	2.514620
125.040496	1793.876799	13.512960	0.009934	2.511105
124.884454	1787.881619	13.517965	0.009965	2.507577
124.832693	1781.881349	13.522970	0.009976	2.504060
124.783558	1775.851377	13.527975	0.009986	2.500522
124.687891	1769.888659	13.532979	0.010006	2.497009
124.615967	1763.821207	13.537984	0.010021	2.493435
124.589355	1757.858524	13.542989	0.010027	2.489925
124.484199	1751.870842	13.547994	0.010049	2.486381
124.509272	1745.832410	13.552999	0.010045	2.482826
124.416866	1739.831137	13.558003	0.010064	2.479266
124.278285	1733.861959	13.563008	0.010092	2.475711
124.120353	1727.850813	13.568013	0.010123	2.472123
124.211099	1721.809685	13.573018	0.010107	2.468559
124.055094	1715.844671	13.578023	0.010138	2.464987
124.110002	1709.823872	13.583027	0.010129	2.461418
124.023976	1703.833961	13.588032	0.010147	2.457835
123.947699	1697.815147	13.593037	0.010163	2.454231
123.810200	1691.819127	13.598042	0.010190	2.450624
123.796751	1685.825328	13.603047	0.010194	2.447037
123.665901	1679.794934	13.608051	0.010220	2.443400
123.661026	1673.815030	13.613056	0.010222	2.439812
123.457607	1667.816943	13.618061	0.010262	2.436169
123.498767	1661.797524	13.623066	0.010256	2.432556
123.428919	1655.777128	13.628071	0.010270	2.428915
123.485300	1649.802175	13.633075	0.010261	2.425320
123.198538	1643.810721	13.638080	0.010317	2.421643
123.216330	1637.793302	13.643085	0.010315	2.418005
123.106598	1631.790817	13.648090	0.010337	2.414345
123.167422	1625.748697	13.653095	0.010327	2.410689
123.021407	1619.788726	13.658099	0.010356	2.407036
123.065103	1613.768405	13.663104	0.010349	2.403379
122.888250	1607.772627	13.668109	0.010384	2.399687
122.845599	1601.779542	13.673114	0.010393	2.396018
122.552947	1595.779677	13.678119	0.010450	2.392289
122.524139	1589.766798	13.683123	0.010456	2.388600
122.459651	1583.738835	13.688128	0.010470	2.384888
122.569567	1577.738952	13.693133	0.010451	2.381223
122.285486	1571.809153	13.698138	0.010506	2.377515
122.128591	1565.741295	13.703143	0.010537	2.373743
121.991508	1559.730754	13.708147	0.010564	2.370003
122.113721	1553.730294	13.713152	0.010542	2.366317
122.077933	1547.732129	13.718157	0.010551	2.362595
122.055826	1541.734412	13.723162	0.010556	2.358869
121.929708	1535.732989	13.728167	0.010581	2.355114
121.773449	1529.749410	13.733171	0.010612	2.351358
121.589967	1523.748460	13.738176	0.010648	2.347579
121.572584	1517.711787	13.743181	0.010653	2.343807
121.624230	1511.699977	13.748186	0.010645	2.340058
121.665277	1505.726149	13.753191	0.010638	2.336324
121.487623	1499.698312	13.758195	0.010673	2.332505
121.376923	1493.735061	13.763200	0.010696	2.328735
121.227336	1487.699008	13.768205	0.010725	2.324904
121.144694	1481.711246	13.773210	0.010742	2.321112
121.030822	1475.714028	13.778215	0.010765	2.317301
120.886824	1469.723177	13.783219	0.010793	2.313481
120.743329	1463.675461	13.788224	0.010822	2.309619
120.761367	1457.703395	13.793229	0.010820	2.305832
120.638548	1451.699240	13.798234	0.010844	2.301990
120.573398	1445.703963	13.803239	0.010858	2.298158
120.551236	1439.669256	13.808243	0.010864	2.294304
120.460428	1433.682867	13.813248	0.010882	2.290460
120.354556	1427.681628	13.818253	0.010904	2.286597
120.265507	1421.687214	13.823258	0.010922	2.282735
120.247967	1415.671467	13.828263	0.010927	2.278868
120.337822	1409.655191	13.833267	0.010911	2.275017
120.185802	1403.675282	13.838272	0.010941	2.271131
120.094680	1397.695366	13.843277	0.010960	2.267252
120.039069	1391.648557	13.848282	0.010972	2.263330
120.059201	1385.650118	13.853287	0.010970	2.259449
120.107894	1379.640415	13.858291	0.010962	2.255561
119.919991	1373.660430	13.863296	0.010999	2.251633
119.813615	1367.671496	13.868301	0.011020	2.247711
119.824603	1361.643155	13.873306	0.011020	2.243782
119.635156	1355.651249	13.878311	0.011057	2.239825
119.589734	1349.645073	13.883315	0.011067	2.235884
119.530765	1343.625504	13.888320	0.011079	2.231925
119.314976	1337.678854	13.893325	0.011121	2.227971
119.422814	1331.627763	13.898330	0.011102	2.224013
119.175281	1325.657113	13.903335	0.011150	2.220023
119.175442	1319.619163	13.908339	0.011152	2.216036
119.056151	1313.644834	13.913344	0.011176	2.212057
119.080455	1307.608026	13.918349	0.011173	2.208061
118.963001	1301.646109	13.923354	0.011196	2.204077
118.745208	1295.626990	13.928359	0.011238	2.200024
119.004378	1289.594504	13.933363	0.011191	2.196062
118.770482	1283.622424	13.938368	0.011237	2.192023
118.726901	1277.629774	13.943373	0.011246	2.188005
118.713198	1271.611815	13.948378	0.011250	2.183970
118.636995	1265.615087	13.953383	0.011266	2.179927
118.509305	1259.613018	13.958387	0.011292	2.175861
118.322473	1253.629694	13.963392	0.011328	2.171787
118.104683	1247.618063	13.968397	0.011370	2.167679
118.148008	1241.597805	13.973402	0.011364	2.163617
117.906075	1235.618480	13.978407	0.011411	2.159510
117.894772	1229.594536	13.983411	0.011414	2.155417
117.835738	1223.584616	13.988416	0.011427	2.151316
117.848916	1217.601635	13.993421	0.011426	2.147241
117.592809	1211.616586	13.998426	0.011475	2.143095
117.551030	1205.608068	14.003431	0.011485	2.138975
117.588646	1199.569975	14.008435	0.011479	2.134845
117.477227	1193.585538	14.013440	0.011502	2.130709
117.317183	1187.618398	14.018445	0.011533	2.126565
117.285941	1181.578703	14.023450	0.011540	2.122394
117.229724	1175.581258	14.028455	0.011552	2.118237
117.251395	1169.574635	14.033459	0.011550	2.114084
117.118981	1163.596506	14.038464	0.011576	2.109907
116.987559	1157.580855	14.043469	0.011602	2.105695
116.858656	1151.577173	14.048474	0.011628	2.101484
116.750840	1145.601054	14.053479	0.011650	2.097289
116.547564	1139.583546	14.058483	0.011689	2.093033
116.483491	1133.584797	14.063488	0.011703	2.088816
116.407508	1127.549840	14.068493	0.011719	2.084561
116.397758	1121.575231	14.073498	0.011722	2.080356
116.313204	1115.563380	14.078503	0.011739	2.076098
116.253912	1109.562397	14.083507	0.011752	2.071845
116.093162	1103.558995	14.088512	0.011784	2.067558
116.033446	1097.588287	14.093517	0.011796	2.063309
115.838910	1091.577163	14.098522	0.011834	2.058989
115.856831	1085.560437	14.103527	0.011832	2.054709
115.791014	1079.543722	14.108531	0.011846	2.050398
115.799154	1073.546727	14.113536	0.011846	2.046111
115.465980	1067.585108	14.118541	0.011910	2.041757
115.365934	1061.581608	14.123546	0.011930	2.037421
115.112613	1055.554570	14.128551	0.011979	2.033020
115.100518	1049.563798	14.133555	0.011983	2.028696
115.048780	1043.541771	14.138560	0.011994	2.024330
115.034923	1037.571462	14.143565	0.011998	2.020002
114.954985	1031.543802	14.148570	0.012015	2.015606
114.955942	1025.542139	14.153575	0.012016	2.011239
114.889894	1019.528782	14.158579	0.012030	2.006838
114.731983	1013.555279	14.163584	0.012061	2.002433
114.606639	1007.573889	14.168589	0.012086	1.998021
114.679387	1001.513166	14.173594	0.012074	1.993591
114.557659	995.554251	14.178599	0.012098	1.989176
114.433545	989.566567	14.183603	0.012123	1.984730
114.378290	983.525061	14.188608	0.012135	1.980252
114.308878	977.548875	14.193613	0.012150	1.975808
114.200313	971.538960	14.198618	0.012171	1.971319
114.078870	965.551254	14.203623	0.012196	1.966833
113.951255	959.546412	14.208627	0.012221	1.962323
114.001244	953.544150	14.213632	0.012213	1.957850
113.936599	947.521587	14.218637	0.012227	1.953321
113.850097	941.547786	14.223642	0.012245	1.948814
113.732559	935.540796	14.228647	0.012268	1.944262
113.827613	929.534729	14.233651	0.012252	1.939756
113.571613	923.557359	14.238656	0.012301	1.935170
113.681841	917.518470	14.243661	0.012282	1.930622
113.473637	911.551231	14.248666	0.012323	1.926033
113.503517	905.519962	14.253671	0.012319	1.921448
113.425940	899.525314	14.258675	0.012335	1.916852
113.317092	893.542902	14.263680	0.012356	1.912245
113.151083	887.530174	14.268685	0.012389	1.907589
113.119991	881.544144	14.273690	0.012396	1.902978
113.109516	875.542229	14.278695	0.012400	1.898349
112.866041	869.560302	14.283699	0.012447	1.893662
112.572445	863.556704	14.288704	0.012504	1.888932
112.593769	857.532012	14.293709	0.012501	1.884260
112.532618	851.535845	14.298714	0.012514	1.879575
112.493361	845.541078	14.303719	0.012523	1.874886
112.222495	839.571115	14.308723	0.012575	1.870142
112.226018	833.525739	14.313728	0.012576	1.865401
112.120029	827.544124	14.318733	0.012597	1.860668
112.145900	821.521646	14.323738	0.012594	1.855927
111.804658	815.571360	14.328743	0.012660	1.851130
111.729735	809.550979	14.333747	0.012675	1.846338
111.702319	803.522474	14.338752	0.012682	1.841541
111.584006	797.556461	14.343757	0.012705	1.836755
111.196402	791.579067	14.348762	0.012780	1.831873
111.233469	785.532890	14.353767	0.012774	1.827042
111.162948	779.535554	14.358771	0.012789	1.822206
111.107697	773.560096	14.363776	0.012801	1.817380
110.869942	767.567409	14.368781	0.012847	1.812475
110.819374	761.539815	14.373786	0.012858	1.807582
110.671298	755.551175	14.378791	0.012887	1.802679
110.725024	749.543787	14.383795	0.012878	1.797806
110.565382	743.538492	14.388800	0.012910	1.792859
110.631075	737.554630	14.393805	0.012899	1.787981
110.477072	731.555710	14.398810	0.012929	1.783015
110.360505	725.580821	14.403815	0.012953	1.778065
110.149039	719.554356	14.408819	0.012994	1.773030
109.995424	713.586550	14.413824	0.013024	1.768047
109.731974	707.566869	14.418829	0.013075	1.762975
109.589195	701.597359	14.423834	0.013103	1.757965
109.382054	695.553727	14.428839	0.013144	1.752860
109.448375	689.562144	14.433843	0.013133	1.747864
109.453924	683.543223	14.438848	0.013133	1.742813
109.407089	677.592923	14.443853	0.013144	1.737790
109.101156	671.575351	14.448858	0.013202	1.732618
109.141733	665.563767	14.453863	0.013196	1.727539
109.044558	659.571164	14.458867	0.013216	1.722420
109.149248	653.561899	14.463872	0.013198	1.717332
108.962284	647.579750	14.468877	0.013234	1.712164
108.984731	641.595823	14.473882	0.013232	1.707042
108.788487	635.583346	14.478887	0.013270	1.701814
108.615923	629.618460	14.483891	0.013304	1.696618
108.408169	623.590970	14.488896	0.013344	1.691341
108.390370	617.583840	14.493901	0.013349	1.686124
108.198483	611.614070	14.498906	0.013387	1.680869
107.891616	605.649090	14.503911	0.013446	1.675566
107.689615	599.601865	14.508915	0.013485	1.670207
107.762571	593.585479	14.513920	0.013473	1.664943
107.763973	587.596538	14.518925	0.013474	1.659665
107.742739	581.601856	14.523930	0.013480	1.654357
107.355941	575.663469	14.528935	0.013554	1.648967
107.241468	569.624777	14.533939	0.013577	1.643556
107.155820	563.624145	14.538944	0.013594	1.638171
107.086709	557.631551	14.543949	0.013609	1.632780
106.821606	551.657712	14.548954	0.013660	1.627325
106.755334	545.631693	14.553959	0.013674	1.621869
106.574772	539.639794	14.558963	0.013709	1.616388
106.521777	533.639375	14.563968	0.013721	1.610922
106.271553	527.649348	14.568973	0.013769	1.605383
106.237441	521.656055	14.573978	0.013777	1.599892
106.292363	515.619533	14.578983	0.013768	1.594372
106.269486	509.668419	14.583987	0.013774	1.588886
105.716770	503.752527	14.588992	0.013879	1.583238
105.635810	497.681229	14.593997	0.013896	1.577582
105.648087	491.641891	14.599002	0.013895	1.571967
105.712856	485.664235	14.604007	0.013884	1.566406
105.567161	479.692879	14.609011	0.013913	1.560761
105.422771	473.713365	14.614016	0.013942	1.555089
105.307842	467.689703	14.619021	0.013965	1.549363
105.195078	461.739476	14.624026	0.013987	1.543687
104.985526	455.709922	14.629031	0.014028	1.537882
104.993023	449.712246	14.634035	0.014028	1.532159
104.789109	443.725641	14.639040	0.014068	1.526352
104.731328	437.741663	14.644045	0.014080	1.520577
104.295003	431.804657	14.649050	0.014164	1.514693
104.172830	425.749510	14.654055	0.014188	1.508781
104.073415	419.750594	14.659059	0.014208	1.502909
104.070551	413.728631	14.664064	0.014210	1.497024
103.864531	407.781486	14.669069	0.014250	1.491119
103.637066	401.802156	14.674074	0.014295	1.485150
103.530623	395.775195	14.679079	0.014316	1.479154
103.469719	389.803829	14.684083	0.014329	1.473204
103.212468	383.804269	14.689088	0.014379	1.467131
103.313048	377.772310	14.694093	0.014361	1.461130
103.009916	371.834295	14.699098	0.014420	1.455053
102.812162	365.848130	14.704103	0.014458	1.448939
102.666413	359.819615	14.709107	0.014487	1.442776
102.620634	353.822196	14.714112	0.014497	1.436654
102.560982	347.828245	14.719117	0.014510	1.430505
102.357999	341.889532	14.724122	0.014549	1.424333
102.219861	335.860424	14.729127	0.014577	1.418065
102.113676	329.869192	14.734131	0.014598	1.411820
101.890983	323.889211	14.739136	0.014641	1.405515
102.038054	317.855984	14.744141	0.014615	1.399266
101.676843	311.938202	14.749146	0.014685	1.392916
101.584390	305.913597	14.754151	0.014703	1.386528
101.571791	299.895908	14.759155	0.014707	1.380148
101.493291	293.926350	14.764160	0.014724	1.373764
101.201385	287.962314	14.769165	0.014780	1.367274
101.199480	281.947385	14.774170	0.014782	1.360811
100.995819	275.965881	14.779175	0.014821	1.354274
100.746321	270.016160	14.784179	0.014870	1.347721
100.517152	264.008872	14.789184	0.014914	1.341082
100.460041	257.989811	14.794189	0.014926	1.334465
100.297731	252.016365	14.799194	0.014958	1.327824
100.219975	246.023912	14.804199	0.014974	1.321162
99.826271	240.074000	14.809203	0.015050	1.314386
99.760074	234.055034	14.814208	0.015064	1.307630
99.825755	227.966945	14.819213	0.015053	1.300816
99.886762	222.022972	14.824218	0.015043	1.294127
99.600402	216.101767	14.829223	0.015098	1.287285
99.550375	210.097243	14.834227	0.015109	1.280409
99.258633	204.132316	14.839232	0.015165	1.273441
99.169053	198.141403	14.844237	0.015183	1.266489
98.875209	192.183419	14.849242	0.015240	1.259451
98.939706	186.135227	14.854247	0.015229	1.252421
98.668864	180.201392	14.859251	0.015282	1.245341
98.534973	174.204872	14.864256	0.015308	1.238206
98.088033	168.279517	14.869261	0.015394	1.230978
97.861497	162.270669	14.874266	0.015438	1.223703
97.658996	156.257536	14.879271	0.015477	1.216390
97.507148	150.280256	14.884275	0.015507	1.209099
97.365923	144.285297	14.889280	0.015535	1.201747
97.360306	138.291406	14.894285	0.015538	1.194412
97.065737	132.345847	14.899290	0.015594	1.186960
96.960510	126.362399	14.904295	0.015616	1.179501
96.592476	120.404542	14.909299	0.015686	1.171905
96.541401	114.391902	14.914304	0.015697	1.164337
96.314710	108.427249	14.919309	0.015741	1.156699
96.159191	102.458722	14.924314	0.015772	1.149038
95.890624	96.479739	14.929319	0.015824	1.141259
95.677189	90.507565	14.934323	0.015865	1.133461
95.441123	84.520351	14.939328	0.015911	1.125579
95.354627	78.531776	14.944333	0.015929	1.117712
95.038846	72.584732	14.949338	0.015989	1.109732
95.000343	66.585439	14.954343	0.015998	1.101760
94.583466	60.652152	14.959347	0.016078	1.093632
94.506173	54.644791	14.964352	0.016094	1.085512
94.056303	48.727986	14.969357	0.016180	1.077267
94.032517	42.687718	14.974362	0.016186	1.069005
93.620403	36.774998	14.979367	0.016264	1.060656
93.511514	30.764038	14.984371	0.016286	1.052260
92.945484	24.880350	14.989376	0.016394	1.043738
92.624607	18.879218	14.994381	0.016456	1.035108
92.117995	12.955614	14.999386	0.016552	1.026418
91.691992	7.018238	15.004391	0.016634	1.017676
90.905671	2.880879	15.009395	0.016782	1.011277
